ATF	1.0
8	3     
"AcquisitionMode=Episodic Stimulation"
"Comment="
"YTop=20000,100"
"YBottom=-20000,-100"
"SyncTimeUnits=12.5"
"SweepStartTimesMS=0.000"
"SignalsExported=Ipatch,piezo"
"Signals="	"Ipatch"	"piezo"
"Time (s)"	"Trace #1 (pA)"	"Trace #1 (µm)"
0	-1086.43	-0.582886
5e-5	-1086.43	-0.595093
1e-4	-1089.48	-0.582886
1.5e-4	-1085.21	-0.588989
2e-4	-1090.09	-0.592041
2.5e-4	-1087.04	-0.598145
3e-4	-1083.98	-0.598145
3.5e-4	-1083.98	-0.582886
4e-4	-1087.65	-0.592041
4.5e-4	-1082.15	-0.570679
5e-4	-1085.21	-0.588989
5.5e-4	-1081.54	-0.592041
6e-4	-1083.98	-0.592041
6.5e-4	-1086.43	-0.576782
7e-4	-1086.43	-0.576782
7.5e-4	-1085.21	-0.579834
8e-4	-1085.21	-0.570679
8.5e-4	-1091.31	-0.585938
9e-4	-1087.65	-0.576782
9.5e-4	-1078.49	-0.588989
0.001	-1087.65	-0.588989
0.00105	-1088.26	-0.585938
0.0011	-1087.04	-0.582886
0.00115	-1080.93	-0.576782
0.0012	-1090.7	-0.595093
0.00125	-1079.71	-0.588989
0.0013	-1085.82	-0.592041
0.00135	-1095.58	-0.588989
0.0014	-1088.26	-0.588989
0.00145	-1088.26	-0.576782
0.0015	-1096.19	-0.57373
0.00155	-1087.65	-0.588989
0.0016	-1088.87	-0.576782
0.00165	-1085.82	-0.588989
0.0017	-1091.92	-0.582886
0.00175	-1088.26	-0.598145
0.0018	-1090.7	-0.582886
0.00185	-1088.26	-0.585938
0.0019	-1091.31	-0.598145
0.00195	-1091.31	-0.576782
0.002	-1088.26	-0.595093
0.00205	-1102.29	-0.585938
0.0021	-1093.14	-0.595093
0.00215	-1085.21	-0.585938
0.0022	-1098.63	-0.592041
0.00225	-1093.14	-0.604248
0.0023	-1080.32	-0.585938
0.00235	-1095.58	-0.595093
0.0024	-1093.75	-0.585938
0.00245	-1098.63	-0.585938
0.0025	-1096.19	-0.585938
0.00255	-1104.13	-0.582886
0.0026	-1098.02	-0.585938
0.00265	-1095.58	-0.588989
0.0027	-1100.46	-0.601196
0.00275	-1097.41	-0.588989
0.0028	-1090.7	-0.6073
0.00285	-1088.26	-0.595093
0.0029	-1101.07	-0.588989
0.00295	-1096.19	-0.592041
0.003	-1096.19	-0.582886
0.00305	-1099.24	-0.588989
0.0031	-1100.46	-0.582886
0.00315	-1095.58	-0.588989
0.0032	-1100.46	-0.576782
0.00325	-1094.36	-0.588989
0.0033	-1094.97	-0.582886
0.00335	-1098.02	-0.582886
0.0034	-1100.46	-0.582886
0.00345	-1099.85	-0.570679
0.0035	-1094.36	-0.588989
0.00355	-1093.14	-0.579834
0.0036	-1100.46	-0.592041
0.00365	-1103.52	-0.582886
0.0037	-1095.58	-0.576782
0.00375	-1099.85	-0.588989
0.0038	-1097.41	-0.595093
0.00385	-1096.8	-0.6073
0.0039	-1099.85	-0.595093
0.00395	-1105.35	-0.604248
0.004	-1097.41	-0.585938
0.00405	-1094.97	-0.595093
0.0041	-1094.97	-0.576782
0.00415	-1102.29	-0.588989
0.0042	-1096.19	-0.592041
0.00425	-1093.14	-0.576782
0.0043	-1097.41	-0.592041
0.00435	-1101.07	-0.582886
0.0044	-1099.85	-0.598145
0.00445	-1094.97	-0.601196
0.0045	-1094.36	-0.592041
0.00455	-1099.24	-0.592041
0.0046	-1095.58	-0.582886
0.00465	-1095.58	-0.598145
0.0047	-1096.19	-0.585938
0.00475	-1096.8	-0.595093
0.0048	-1098.63	-0.579834
0.00485	-1096.8	-0.582886
0.0049	-1088.26	-0.592041
0.00495	-1090.09	-0.582886
0.005	-1098.02	-0.601196
0.00505	-1102.29	-0.576782
0.0051	-1098.63	-0.588989
0.00515	-1096.19	-0.592041
0.0052	-1097.41	-0.585938
0.00525	-1103.52	-0.579834
0.0053	-1102.91	-0.585938
0.00535	-1101.68	-0.601196
0.0054	-1095.58	-0.592041
0.00545	-1094.36	-0.598145
0.0055	-1104.13	-0.588989
0.00555	-1098.02	-0.598145
0.0056	-1102.91	-0.595093
0.00565	-1096.19	-0.582886
0.0057	-1094.36	-0.582886
0.00575	-1101.07	-0.57373
0.0058	-1099.85	-0.598145
0.00585	-1106.57	-0.592041
0.0059	-1099.24	-0.585938
0.00595	-1105.96	-0.588989
0.006	-1097.41	-0.588989
0.00605	-1106.57	-0.598145
0.0061	-1104.13	-0.585938
0.00615	-1101.68	-0.604248
0.0062	-1097.41	-0.588989
0.00625	-1099.24	-0.598145
0.0063	-1093.75	-0.582886
0.00635	-1089.48	-0.585938
0.0064	-1093.14	-0.588989
0.00645	-1093.75	-0.567627
0.0065	-1091.92	-0.585938
0.00655	-1090.09	-0.570679
0.0066	-1093.14	-0.576782
0.00665	-1093.14	-0.567627
0.0067	-1091.31	-0.582886
0.00675	-1093.14	-0.582886
0.0068	-1094.97	-0.576782
0.00685	-1097.41	-0.585938
0.0069	-1096.8	-0.57373
0.00695	-1090.09	-0.588989
0.007	-1094.36	-0.582886
0.00705	-1101.07	-0.588989
0.0071	-1092.53	-0.585938
0.00715	-1092.53	-0.585938
0.0072	-1097.41	-0.588989
0.00725	-1088.87	-0.57373
0.0073	-1092.53	-0.598145
0.00735	-1095.58	-0.585938
0.0074	-1085.21	-0.585938
0.00745	-1093.75	-0.582886
0.0075	-1088.87	-0.588989
0.00755	-1097.41	-0.592041
0.0076	-1088.26	-0.576782
0.00765	-1093.14	-0.582886
0.0077	-1089.48	-0.585938
0.00775	-1085.21	-0.592041
0.0078	-1085.21	-0.576782
0.00785	-1090.09	-0.582886
0.0079	-1093.75	-0.585938
0.00795	-1089.48	-0.576782
0.008	-1086.43	-0.595093
0.00805	-1088.87	-0.570679
0.0081	-1087.65	-0.579834
0.00815	-1093.75	-0.57373
0.0082	-1089.48	-0.579834
0.00825	-1090.09	-0.579834
0.0083	-1089.48	-0.582886
0.00835	-1096.19	-0.595093
0.0084	-1087.65	-0.588989
0.00845	-1085.21	-0.601196
0.0085	-1083.98	-0.585938
0.00855	-1088.87	-0.595093
0.0086	-1089.48	-0.595093
0.00865	-1095.58	-0.592041
0.0087	-1090.7	-0.595093
0.00875	-1090.09	-0.585938
0.0088	-1090.7	-0.585938
0.00885	-1093.14	-0.582886
0.0089	-1090.7	-0.585938
0.00895	-1093.14	-0.595093
0.009	-1085.82	-0.592041
0.00905	-1091.92	-0.585938
0.0091	-1085.21	-0.582886
0.00915	-1090.09	-0.598145
0.0092	-1086.43	-0.579834
0.00925	-1088.87	-0.592041
0.0093	-1089.48	-0.585938
0.00935	-1092.53	-0.582886
0.0094	-1099.85	-0.582886
0.00945	-1093.14	-0.579834
0.0095	-1090.7	-0.592041
0.00955	-1098.63	-0.582886
0.0096	-1093.75	-0.598145
0.00965	-1099.85	-0.576782
0.0097	-1101.68	-0.582886
0.00975	-1088.26	-0.585938
0.0098	-1097.41	-0.585938
0.00985	-1103.52	-0.585938
0.0099	-1099.24	-0.576782
0.00995	-1101.07	-0.588989
0.01	-1097.41	-0.576782
0.01005	-1095.58	-0.588989
0.0101	-1096.8	-0.588989
0.01015	-1099.24	-0.592041
0.0102	-1102.29	-0.595093
0.01025	-1093.14	-0.592041
0.0103	-1091.31	-0.604248
0.01035	-1087.04	-0.585938
0.0104	-1098.63	-0.595093
0.01045	-1099.24	-0.582886
0.0105	-1093.75	-0.588989
0.01055	-1093.75	-0.592041
0.0106	-1087.65	-0.592041
0.01065	-1090.7	-0.598145
0.0107	-1093.14	-0.576782
0.01075	-1094.36	-0.592041
0.0108	-1091.31	-0.579834
0.01085	-1090.09	-0.585938
0.0109	-1088.26	-0.585938
0.01095	-1093.14	-0.595093
0.011	-1088.26	-0.598145
0.01105	-1098.02	-0.585938
0.0111	-1092.53	-0.592041
0.01115	-1088.87	-0.582886
0.0112	-1088.87	-0.598145
0.01125	-1093.14	-0.588989
0.0113	-1085.21	-0.595093
0.01135	-1096.19	-0.585938
0.0114	-1094.97	-0.582886
0.01145	-1095.58	-0.592041
0.0115	-1094.97	-0.585938
0.01155	-1093.14	-0.604248
0.0116	-1080.93	-0.585938
0.01165	-1094.97	-0.601196
0.0117	-1087.04	-0.592041
0.01175	-1085.82	-0.585938
0.0118	-1082.15	-0.601196
0.01185	-1093.14	-0.592041
0.0119	-1084.59	-0.6073
0.01195	-1094.97	-0.592041
0.012	-1098.02	-0.585938
0.01205	-1096.19	-0.592041
0.0121	-1094.97	-0.579834
0.01215	-1088.87	-0.588989
0.0122	-1094.36	-0.579834
0.01225	-1088.26	-0.598145
0.0123	-1085.82	-0.592041
0.01235	-1089.48	-0.604248
0.0124	-1088.26	-0.595093
0.01245	-1085.82	-0.588989
0.0125	-1083.98	-0.595093
0.01255	-1081.54	-0.576782
0.0126	-1085.21	-0.592041
0.01265	-1090.09	-0.579834
0.0127	-1093.75	-0.604248
0.01275	-1090.09	-0.595093
0.0128	-1089.48	-0.592041
0.01285	-1096.19	-0.588989
0.0129	-1093.75	-0.592041
0.01295	-1088.87	-0.598145
0.013	-1090.09	-0.595093
0.01305	-1087.65	-0.6073
0.0131	-1094.36	-0.585938
0.01315	-1086.43	-0.598145
0.0132	-1088.26	-0.604248
0.01325	-1098.02	-0.601196
0.0133	-1080.93	-0.6073
0.01335	-1090.09	-0.582886
0.0134	-1096.19	-0.592041
0.01345	-1092.53	-0.601196
0.0135	-1080.32	-0.601196
0.01355	-1091.31	-0.592041
0.0136	-1088.26	-0.582886
0.01365	-1079.1	-0.595093
0.0137	-1086.43	-0.579834
0.01375	-1085.82	-0.6073
0.0138	-1087.04	-0.592041
0.01385	-1088.26	-0.6073
0.0139	-1085.82	-0.595093
0.01395	-50.0488	-0.6073
0.014	452.271	-0.604248
0.01405	332.031	-0.598145
0.0141	222.168	-0.616455
0.01415	137.939	-0.604248
0.0142	60.4248	-0.613403
0.01425	0	-0.595093
0.0143	-48.2178	-0.604248
0.01435	-101.318	-0.592041
0.0144	-135.498	-0.579834
0.01445	-162.964	-0.588989
0.0145	-189.819	-0.576782
0.01455	-213.013	-0.598145
0.0146	-229.492	-0.576782
0.01465	-246.582	-0.57373
0.0147	-267.944	-0.579834
0.01475	-289.917	-0.579834
0.0148	-293.579	-0.585938
0.01485	-299.683	-0.57373
0.0149	-326.538	-0.592041
0.01495	-333.252	-0.576782
0.015	-347.9	-0.576782
0.01505	-360.107	-0.579834
0.0151	-358.887	-0.595093
0.01515	-368.042	-0.598145
0.0152	-388.794	-0.588989
0.01525	-391.235	-0.601196
0.0153	-383.301	-0.579834
0.01535	-408.325	-0.588989
0.0154	-414.429	-0.579834
0.01545	-409.546	-0.598145
0.0155	-420.532	-0.579834
0.01555	-426.636	-0.567627
0.0156	-433.96	-0.585938
0.01565	-447.388	-0.570679
0.0157	-452.881	-0.57373
0.01575	-448.608	-0.576782
0.0158	-460.205	-0.582886
0.01585	-462.036	-0.570679
0.0159	-469.36	-0.558472
0.01595	-473.022	-0.576782
0.016	-477.905	-0.57373
0.01605	-480.347	-0.582886
0.0161	-487.671	-0.57373
0.01615	-499.878	-0.579834
0.0162	-496.216	-0.576782
0.01625	-500.488	-0.585938
0.0163	-506.592	-0.588989
0.01635	-513.306	-0.579834
0.0164	-517.578	-0.588989
0.01645	-522.461	-0.57373
0.0165	-523.682	-0.598145
0.01655	-527.954	-0.585938
0.0166	-528.564	-0.588989
0.01665	-528.564	-0.588989
0.0167	-532.837	-0.579834
0.01675	-540.771	-0.598145
0.0168	-540.771	-0.582886
0.01685	-546.265	-0.595093
0.0169	-551.758	-0.576782
0.01695	-556.641	-0.598145
0.017	-556.641	-0.588989
0.01705	-562.744	-0.582886
0.0171	-566.406	-0.588989
0.01715	-570.679	-0.576782
0.0172	-573.12	-0.592041
0.01725	-568.237	-0.57373
0.0173	-566.406	-0.582886
0.01735	-575.562	-0.579834
0.0174	-579.224	-0.585938
0.01745	-582.275	-0.588989
0.0175	-590.21	-0.585938
0.01755	-590.82	-0.595093
0.0176	-592.041	-0.579834
0.01765	-593.872	-0.579834
0.0177	-595.093	-0.582886
0.01775	-588.379	-0.588989
0.0178	-591.431	-0.588989
0.01785	-599.976	-0.582886
0.0179	-600.586	-0.592041
0.01795	-592.041	-0.585938
0.018	-603.027	-0.588989
0.01805	-606.689	-0.576782
0.0181	-602.417	-0.579834
0.01815	-607.91	-0.57373
0.0182	-601.196	-0.576782
0.01825	-610.352	-0.582886
0.0183	-621.338	-0.567627
0.01835	-621.338	-0.585938
0.0184	-622.559	-0.576782
0.01845	-610.352	-0.588989
0.0185	-627.441	-0.582886
0.01855	-626.831	-0.585938
0.0186	-629.272	-0.588989
0.01865	-627.441	-0.576782
0.0187	-623.169	-0.595093
0.01875	-637.817	-0.567627
0.0188	-632.935	-0.585938
0.01885	-634.766	-0.588989
0.0189	-642.09	-0.588989
0.01895	-634.155	-0.576782
0.019	-632.324	-0.576782
0.01905	-637.207	-0.585938
0.0191	-639.038	-0.576782
0.01915	-638.428	-0.585938
0.0192	-642.09	-0.579834
0.01925	-642.09	-0.582886
0.0193	-641.479	-0.595093
0.01935	-643.921	-0.579834
0.0194	-640.869	-0.585938
0.01945	-648.804	-0.576782
0.0195	-640.259	-0.588989
0.01955	-650.024	-0.57373
0.0196	-657.349	-0.582886
0.01965	-646.973	-0.579834
0.0197	-649.414	-0.592041
0.01975	-655.518	-0.592041
0.0198	-646.973	-0.582886
0.01985	-656.738	-0.588989
0.0199	-657.349	-0.579834
0.01995	-654.297	-0.592041
0.02	-656.738	-0.582886
0.02005	-657.349	-0.595093
0.0201	-651.245	-0.598145
0.02015	-651.855	-0.582886
0.0202	-655.518	-0.595093
0.02025	-661.621	-0.582886
0.0203	-654.907	-0.595093
0.02035	-657.349	-0.582886
0.0204	-658.569	-0.582886
0.02045	-657.349	-0.588989
0.0205	-657.349	-0.579834
0.02055	-658.569	-0.592041
0.0206	-657.349	-0.588989
0.02065	-662.231	-0.601196
0.0207	-659.79	-0.588989
0.02075	-664.673	-0.588989
0.0208	-665.283	-0.582886
0.02085	-664.673	-0.579834
0.0209	-668.945	-0.592041
0.02095	-668.945	-0.592041
0.021	-661.011	-0.6073
0.02105	-665.283	-0.582886
0.0211	-665.894	-0.595093
0.02115	-671.387	-0.592041
0.0212	-662.842	-0.592041
0.02125	-665.894	-0.592041
0.0213	-671.387	-0.582886
0.02135	-665.894	-0.585938
0.0214	-675.049	-0.576782
0.02145	-670.776	-0.601196
0.0215	-674.438	-0.585938
0.02155	-668.335	-0.585938
0.0216	-674.438	-0.592041
0.02165	-675.659	-0.595093
0.0217	-670.776	-0.598145
0.02175	-667.725	-0.576782
0.0218	-657.959	-0.588989
0.02185	-674.438	-0.579834
0.0219	-669.556	-0.595093
0.02195	-671.387	-0.595093
0.022	-674.438	-0.588989
0.02205	-668.945	-0.592041
0.0221	-676.27	-0.582886
0.02215	-673.218	-0.604248
0.0222	-673.828	-0.592041
0.02225	-681.763	-0.595093
0.0223	-667.114	-0.592041
0.02235	-673.218	-0.595093
0.0224	-679.321	-0.598145
0.02245	-678.101	-0.582886
0.0225	-684.814	-0.592041
0.02255	-678.101	-0.579834
0.0226	-680.542	-0.601196
0.02265	-676.27	-0.585938
0.0227	-676.88	-0.588989
0.02275	-682.983	-0.592041
0.0228	-678.101	-0.585938
0.02285	-679.932	-0.598145
0.0229	-681.763	-0.57373
0.02295	-676.27	-0.582886
0.023	-681.763	-0.585938
0.02305	-679.932	-0.595093
0.0231	-682.983	-0.592041
0.02315	-687.256	-0.588989
0.0232	-684.814	-0.601196
0.02325	-692.139	-0.579834
0.0233	-684.204	-0.585938
0.02335	-686.646	-0.585938
0.0234	-693.359	-0.588989
0.02345	-688.477	-0.582886
0.0235	-684.814	-0.582886
0.02355	-683.594	-0.595093
0.0236	-681.152	-0.592041
0.02365	-683.594	-0.601196
0.0237	-690.918	-0.582886
0.02375	-687.866	-0.592041
0.0238	-683.594	-0.585938
0.02385	-689.087	-0.592041
0.0239	-681.152	-0.595093
0.02395	-681.763	-0.585938
0.024	-687.256	-0.588989
0.02405	-693.359	-0.579834
0.0241	-687.256	-0.6073
0.02415	-685.425	-0.588989
0.0242	-700.684	-0.582886
0.02425	-698.242	-0.588989
0.0243	-692.749	-0.57373
0.02435	-692.749	-0.567627
0.0244	-693.97	-0.570679
0.02445	-701.904	-0.582886
0.0245	-689.697	-0.57373
0.02455	-689.697	-0.588989
0.0246	-691.528	-0.585938
0.02465	-693.97	-0.579834
0.0247	-698.853	-0.57373
0.02475	-697.021	-0.564575
0.0248	-691.528	-0.579834
0.02485	-696.411	-0.570679
0.0249	-702.515	-0.585938
0.02495	-698.242	-0.579834
0.025	-692.139	-0.582886
0.02505	-700.684	-0.598145
0.0251	-692.749	-0.582886
0.02515	-698.853	-0.585938
0.0252	-693.359	-0.567627
0.02525	-692.139	-0.570679
0.0253	-691.528	-0.567627
0.02535	-698.853	-0.576782
0.0254	-704.346	-0.57373
0.02545	-695.801	-0.570679
0.0255	-691.528	-0.576782
0.02555	-693.97	-0.561523
0.0256	-691.528	-0.592041
0.02565	-690.918	-0.582886
0.0257	-695.801	-0.585938
0.02575	-695.19	-0.595093
0.0258	-696.411	-0.570679
0.02585	-693.97	-0.588989
0.0259	-700.073	-0.570679
0.02595	-697.021	-0.588989
0.026	-698.242	-0.582886
0.02605	-688.477	-0.582886
0.0261	-692.749	-0.585938
0.02615	-697.021	-0.585938
0.0262	-694.58	-0.582886
0.02625	-690.308	-0.57373
0.0263	-700.684	-0.592041
0.02635	-684.204	-0.585938
0.0264	-695.19	-0.604248
0.02645	-687.866	-0.595093
0.0265	-692.749	-0.598145
0.02655	-692.749	-0.595093
0.0266	-692.749	-0.585938
0.02665	-693.97	-0.604248
0.0267	-691.528	-0.592041
0.02675	-688.477	-0.601196
0.0268	-690.918	-0.585938
0.02685	-691.528	-0.582886
0.0269	-699.463	-0.579834
0.02695	-685.425	-0.576782
0.027	-703.735	-0.592041
0.02705	-697.632	-0.582886
0.0271	-689.087	-0.598145
0.02715	-696.411	-0.595093
0.0272	-693.359	-0.598145
0.02725	-697.632	-0.588989
0.0273	-695.19	-0.588989
0.02735	-696.411	-0.595093
0.0274	-696.411	-0.582886
0.02745	-691.528	-0.595093
0.0275	-693.359	-0.576782
0.02755	-689.697	-0.595093
0.0276	-693.97	-0.582886
0.02765	-690.308	-0.588989
0.0277	-700.684	-0.592041
0.02775	-701.904	-0.576782
0.0278	-694.58	-0.585938
0.02785	-692.139	-0.57373
0.0279	-687.866	-0.598145
0.02795	-696.411	-0.588989
0.028	-698.242	-0.595093
0.02805	-690.918	-0.592041
0.0281	-698.242	-0.582886
0.02815	-695.19	-0.588989
0.0282	-700.073	-0.57373
0.02825	-690.918	-0.592041
0.0283	-687.866	-0.582886
0.02835	-697.632	-0.588989
0.0284	-692.139	-0.582886
0.02845	-692.139	-0.57373
0.0285	-698.853	-0.585938
0.02855	-694.58	-0.588989
0.0286	-693.359	-0.610352
0.02865	-692.749	-0.588989
0.0287	-696.411	-0.604248
0.02875	-695.801	-0.592041
0.0288	-688.477	-0.585938
0.02885	-689.697	-0.598145
0.0289	-689.697	-0.585938
0.02895	-701.294	-0.595093
0.029	-700.073	-0.576782
0.02905	-698.853	-0.598145
0.0291	-700.073	-0.585938
0.02915	-692.139	-0.585938
0.0292	-700.684	-0.588989
0.02925	-693.359	-0.582886
0.0293	-690.918	-0.592041
0.02935	-696.411	-0.582886
0.0294	-695.19	-0.598145
0.02945	-698.853	-0.576782
0.0295	-694.58	-0.579834
0.02955	-701.294	-0.576782
0.0296	-695.801	-0.585938
0.02965	-685.425	-0.585938
0.0297	-698.242	-0.579834
0.02975	-697.021	-0.598145
0.0298	-699.463	-0.579834
0.02985	-702.515	-0.592041
0.0299	-697.021	-0.598145
0.02995	-695.19	-0.585938
0.03	-701.904	-0.585938
0.03005	-700.684	-0.595093
0.0301	-695.801	-0.601196
0.03015	-698.242	-0.588989
0.0302	-690.918	-0.598145
0.03025	-690.918	-0.585938
0.0303	-702.515	-0.601196
0.03035	-695.801	-0.604248
0.0304	-693.359	-0.598145
0.03045	-698.853	-0.595093
0.0305	-690.918	-0.582886
0.03055	-694.58	-0.601196
0.0306	-702.515	-0.601196
0.03065	-692.749	-0.601196
0.0307	-693.97	-0.595093
0.03075	-704.346	-0.588989
0.0308	-693.359	-0.598145
0.03085	-700.073	-0.579834
0.0309	-697.632	-0.592041
0.03095	-705.566	-0.576782
0.031	-693.359	-0.588989
0.03105	-693.359	-0.579834
0.0311	-699.463	-0.57373
0.03115	-699.463	-0.585938
0.0312	-693.97	-0.576782
0.03125	-697.632	-0.592041
0.0313	-689.697	-0.582886
0.03135	-691.528	-0.601196
0.0314	-695.19	-0.595093
0.03145	-701.294	-0.598145
0.0315	-692.749	-0.588989
0.03155	-698.242	-0.592041
0.0316	-700.684	-0.604248
0.03165	-701.294	-0.579834
0.0317	-702.515	-0.588989
0.03175	-693.97	-0.582886
0.0318	-697.021	-0.588989
0.03185	-689.697	-0.576782
0.0319	-695.801	-0.576782
0.03195	-692.749	-0.595093
0.032	-695.801	-0.570679
0.03205	-693.97	-0.582886
0.0321	-698.242	-0.576782
0.03215	-700.684	-0.592041
0.0322	-697.021	-0.57373
0.03225	-702.515	-0.582886
0.0323	-690.308	-0.595093
0.03235	-692.139	-0.567627
0.0324	-696.411	-0.592041
0.03245	-689.697	-0.588989
0.0325	-692.749	-0.595093
0.03255	-698.242	-0.576782
0.0326	-693.97	-0.579834
0.03265	-698.853	-0.595093
0.0327	-696.411	-0.576782
0.03275	-694.58	-0.598145
0.0328	-697.021	-0.582886
0.03285	-694.58	-0.595093
0.0329	-697.632	-0.588989
0.03295	-693.359	-0.588989
0.033	-694.58	-0.592041
0.03305	-688.477	-0.576782
0.0331	-692.139	-0.585938
0.03315	-703.125	-0.576782
0.0332	-682.983	-0.588989
0.03325	-690.918	-0.57373
0.0333	-690.918	-0.585938
0.03335	-690.308	-0.579834
0.0334	-693.97	-0.582886
0.03345	-700.073	-0.588989
0.0335	-695.801	-0.585938
0.03355	-687.866	-0.598145
0.0336	-693.359	-0.579834
0.03365	-700.073	-0.582886
0.0337	-689.697	-0.582886
0.03375	-692.749	-0.576782
0.0338	-692.749	-0.579834
0.03385	-700.073	-0.57373
0.0339	-693.359	-0.579834
0.03395	-691.528	-0.564575
0.034	-687.256	-0.579834
0.03405	-686.646	-0.570679
0.0341	-692.139	-0.579834
0.03415	-690.918	-0.585938
0.0342	-693.359	-0.579834
0.03425	-687.866	-0.588989
0.0343	-697.021	-0.576782
0.03435	-693.97	-0.595093
0.0344	-697.632	-0.567627
0.03445	-694.58	-0.570679
0.0345	-690.918	-0.57373
0.03455	-684.204	-0.579834
0.0346	-688.477	-0.582886
0.03465	-691.528	-0.579834
0.0347	-692.139	-0.588989
0.03475	-684.204	-0.57373
0.0348	-684.814	-0.588989
0.03485	-689.697	-0.585938
0.0349	-682.983	-0.579834
0.03495	-686.646	-0.582886
0.035	-701.294	-0.570679
0.03505	-693.97	-0.585938
0.0351	-700.073	-0.564575
0.03515	-690.918	-0.585938
0.0352	-690.308	-0.585938
0.03525	-692.749	-0.585938
0.0353	-688.477	-0.576782
0.03535	-690.308	-0.570679
0.0354	-688.477	-0.57373
0.03545	-689.697	-0.57373
0.0355	-694.58	-0.585938
0.03555	-692.139	-0.588989
0.0356	-692.139	-0.595093
0.03565	-685.425	-0.588989
0.0357	-687.866	-0.588989
0.03575	-693.97	-0.598145
0.0358	-695.801	-0.579834
0.03585	-692.139	-0.592041
0.0359	-695.19	-0.576782
0.03595	-692.749	-0.585938
0.036	-690.918	-0.579834
0.03605	-693.359	-0.582886
0.0361	-690.308	-0.585938
0.03615	-690.918	-0.567627
0.0362	-697.632	-0.588989
0.03625	-692.749	-0.576782
0.0363	-692.139	-0.585938
0.03635	-696.411	-0.585938
0.0364	-692.749	-0.585938
0.03645	-691.528	-0.579834
0.0365	-693.97	-0.564575
0.03655	-689.697	-0.582886
0.0366	-691.528	-0.582886
0.03665	-691.528	-0.588989
0.0367	-689.087	-0.585938
0.03675	-697.021	-0.592041
0.0368	-698.853	-0.595093
0.03685	-689.087	-0.588989
0.0369	-690.308	-0.588989
0.03695	-687.866	-0.585938
0.037	-687.866	-0.592041
0.03705	-692.749	-0.585938
0.0371	-695.801	-0.585938
0.03715	-693.97	-0.588989
0.0372	-691.528	-0.576782
0.03725	-689.697	-0.595093
0.0373	-692.139	-0.582886
0.03735	-691.528	-0.604248
0.0374	-689.087	-0.582886
0.03745	-689.087	-0.588989
0.0375	-696.411	-0.585938
0.03755	-690.308	-0.582886
0.0376	-683.594	-0.598145
0.03765	-690.918	-0.588989
0.0377	-686.646	-0.604248
0.03775	-692.749	-0.582886
0.0378	-687.256	-0.601196
0.03785	-692.749	-0.588989
0.0379	-689.697	-0.588989
0.03795	-685.425	-0.582886
0.038	-691.528	-0.585938
0.03805	-689.087	-0.595093
0.0381	-692.749	-0.582886
0.03815	-698.853	-0.598145
0.0382	-694.58	-0.579834
0.03825	-692.749	-0.585938
0.0383	-692.139	-0.604248
0.03835	-700.684	-0.604248
0.0384	-690.918	-0.610352
0.03845	-684.814	-0.592041
0.0385	-693.97	-0.610352
0.03855	-693.359	-0.592041
0.0386	-693.359	-0.601196
0.03865	-693.359	-0.588989
0.0387	-689.697	-0.592041
0.03875	-687.256	-0.595093
0.0388	-682.983	-0.588989
0.03885	-695.801	-0.604248
0.0389	-689.087	-0.588989
0.03895	-1735.23	-0.595093
0.039	-2245.48	-0.592041
0.03905	-2121.58	-0.588989
0.0391	-2015.38	-0.588989
0.03915	-1919.56	-0.585938
0.0392	-1855.47	-0.601196
0.03925	-1787.11	-0.588989
0.0393	-1738.89	-0.601196
0.03935	-1698	-0.595093
0.0394	-1655.88	-0.598145
0.03945	-1621.09	-0.588989
0.0395	-1601.56	-0.585938
0.03955	-1577.76	-0.595093
0.0396	-1557.01	-0.579834
0.03965	-1539.92	-0.595093
0.0397	-1519.17	-0.57373
0.03975	-1503.3	-0.595093
0.0398	-1492.92	-0.588989
0.03985	-1472.17	-0.585938
0.0399	-1470.34	-0.579834
0.03995	-1452.64	-0.582886
0.04	-1442.26	-0.601196
0.04005	-1428.22	-0.576782
0.0401	-1423.95	-0.579834
0.04015	-1419.07	-0.588989
0.0402	-1408.69	-0.595093
0.04025	-1405.64	-0.592041
0.0403	-1400.15	-0.585938
0.04035	-1387.94	-0.604248
0.0404	-1368.41	-0.576782
0.04045	-1370.85	-0.595093
0.0405	-1364.14	-0.582886
0.04055	-1362.92	-0.582886
0.0406	-1352.54	-0.579834
0.04065	-1340.94	-0.579834
0.0407	-1337.28	-0.595093
0.04075	-1333.62	-0.576782
0.0408	-1326.29	-0.588989
0.04085	-1321.41	-0.588989
0.0409	-1323.24	-0.592041
0.04095	-1316.53	-0.576782
0.041	-1305.54	-0.57373
0.04105	-1303.1	-0.588989
0.0411	-1294.56	-0.585938
0.04115	-1297.61	-0.595093
0.0412	-1301.88	-0.579834
0.04125	-1277.47	-0.585938
0.0413	-1287.23	-0.582886
0.04135	-1277.47	-0.582886
0.0414	-1281.13	-0.595093
0.04145	-1269.53	-0.588989
0.0415	-1266.48	-0.588989
0.04155	-1261.6	-0.567627
0.0416	-1263.43	-0.588989
0.04165	-1253.66	-0.579834
0.0417	-1251.22	-0.579834
0.04175	-1251.83	-0.595093
0.0418	-1253.05	-0.588989
0.04185	-1250	-0.595093
0.0419	-1238.4	-0.582886
0.04195	-1231.69	-0.601196
0.042	-1230.47	-0.588989
0.04205	-1228.64	-0.579834
0.0421	-1223.14	-0.564575
0.04215	-1226.2	-0.57373
0.0422	-1226.2	-0.57373
0.04225	-1226.81	-0.564575
0.0423	-1221.92	-0.588989
0.04235	-1212.77	-0.558472
0.0424	-1213.99	-0.57373
0.04245	-1210.33	-0.579834
0.0425	-1203.61	-0.598145
0.04255	-1198.12	-0.585938
0.0426	-1203	-0.579834
0.04265	-1196.29	-0.588989
0.0427	-1199.34	-0.576782
0.04275	-1194.46	-0.595093
0.0428	-1193.85	-0.582886
0.04285	-1193.85	-0.585938
0.0429	-1191.41	-0.585938
0.04295	-1190.8	-0.582886
0.043	-1181.64	-0.588989
0.04305	-1182.86	-0.582886
0.0431	-1178.59	-0.598145
0.04315	-1170.04	-0.588989
0.0432	-1173.71	-0.592041
0.04325	-1171.26	-0.576782
0.0433	-1170.65	-0.57373
0.04335	-1167.6	-0.585938
0.0434	-1174.93	-0.561523
0.04345	-1176.15	-0.585938
0.0435	-1159.06	-0.567627
0.04355	-1166.38	-0.582886
0.0436	-1165.77	-0.57373
0.04365	-1169.43	-0.57373
0.0437	-1159.67	-0.585938
0.04375	-1165.16	-0.582886
0.0438	-1149.29	-0.592041
0.04385	-1159.67	-0.579834
0.0439	-1151.12	-0.585938
0.04395	-1161.5	-0.579834
0.044	-1148.68	-0.595093
0.04405	-1157.84	-0.592041
0.0441	-1149.9	-0.576782
0.04415	-1159.06	-0.585938
0.0442	-1152.34	-0.582886
0.04425	-1156.62	-0.592041
0.0443	-1154.79	-0.579834
0.04435	-1146.85	-0.585938
0.0444	-1145.02	-0.588989
0.04445	-1136.47	-0.57373
0.0445	-1136.47	-0.604248
0.04455	-1138.31	-0.582886
0.0446	-1136.47	-0.592041
0.04465	-1133.42	-0.585938
0.0447	-1143.8	-0.598145
0.04475	-1138.31	-0.592041
0.0448	-1131.59	-0.592041
0.04485	-1149.29	-0.598145
0.0449	-1137.08	-0.592041
0.04495	-1137.08	-0.601196
0.045	-1131.59	-0.585938
0.04505	-1136.47	-0.601196
0.0451	-1128.54	-0.579834
0.04515	-1116.33	-0.585938
0.0452	-1121.83	-0.598145
0.04525	-1118.16	-0.592041
0.0453	-1123.05	-0.601196
0.04535	-1120.61	-0.585938
0.0454	-1125.49	-0.604248
0.04545	-1115.72	-0.585938
0.0455	-1117.55	-0.588989
0.04555	-1109.01	-0.595093
0.0456	-1109.01	-0.595093
0.04565	-1106.57	-0.604248
0.0457	-1111.45	-0.582886
0.04575	-1115.11	-0.610352
0.0458	-1116.33	-0.604248
0.04585	-1098.02	-0.601196
0.0459	-1111.45	-0.6073
0.04595	-1105.96	-0.588989
0.046	-1112.06	-0.598145
0.04605	-1107.79	-0.582886
0.0461	-1104.74	-0.598145
0.04615	-1094.36	-0.585938
0.0462	-1114.5	-0.598145
0.04625	-1096.8	-0.579834
0.0463	-1111.45	-0.585938
0.04635	-1104.74	-0.598145
0.0464	-1096.19	-0.592041
0.04645	-1105.96	-0.601196
0.0465	-1099.24	-0.576782
0.04655	-1115.11	-0.598145
0.0466	-1099.24	-0.595093
0.04665	-1097.41	-0.595093
0.0467	-1107.18	-0.592041
0.04675	-1099.85	-0.592041
0.0468	-1101.07	-0.592041
0.04685	-1096.8	-0.585938
0.0469	-1092.53	-0.604248
0.04695	-1101.07	-0.585938
0.047	-1107.79	-0.595093
0.04705	-1096.19	-0.592041
0.0471	-1094.36	-0.601196
0.04715	-1098.02	-0.601196
0.0472	-1094.36	-0.57373
0.04725	-1095.58	-0.604248
0.0473	-1089.48	-0.595093
0.04735	-1093.14	-0.6073
0.0474	-1097.41	-0.604248
0.04745	-1099.85	-0.598145
0.0475	-1091.31	-0.595093
0.04755	-1098.02	-0.585938
0.0476	-1095.58	-0.598145
0.04765	-1087.04	-0.585938
0.0477	-1087.65	-0.595093
0.04775	-1092.53	-0.592041
0.0478	-1090.7	-0.588989
0.04785	-1089.48	-0.598145
0.0479	-1091.31	-0.592041
0.04795	-1085.82	-0.604248
0.048	-1090.09	-0.576782
0.04805	-1085.21	-0.595093
0.0481	-1092.53	-0.588989
0.04815	-1091.92	-0.588989
0.0482	-1090.09	-0.585938
0.04825	-1085.21	-0.588989
0.0483	-1085.82	-0.610352
0.04835	-1091.92	-0.592041
0.0484	-1090.7	-0.601196
0.04845	-1081.54	-0.601196
0.0485	-1073.61	-0.6073
0.04855	-1084.59	-0.588989
0.0486	-1078.49	-0.592041
0.04865	-1094.97	-0.598145
0.0487	-1082.15	-0.579834
0.04875	-1088.26	-0.604248
0.0488	-1084.59	-0.585938
0.04885	-1085.21	-0.601196
0.0489	-1091.31	-0.582886
0.04895	-1083.37	-0.592041
0.049	-1086.43	-0.6073
0.04905	-1089.48	-0.582886
0.0491	-1085.21	-0.601196
0.04915	-1081.54	-0.582886
0.0492	-1083.37	-0.598145
0.04925	-1094.97	-0.579834
0.0493	-1087.04	-0.595093
0.04935	-1088.26	-0.601196
0.0494	-1086.43	-0.595093
0.04945	-1087.65	-0.598145
0.0495	-1085.21	-0.582886
0.04955	-1083.98	-0.588989
0.0496	-1082.76	-0.576782
0.04965	-1086.43	-0.598145
0.0497	-1076.66	-0.592041
0.04975	-1082.76	-0.585938
0.0498	-1079.71	-0.588989
0.04985	-1077.27	-0.582886
0.0499	-1084.59	-0.585938
0.04995	-1091.92	-0.570679
0.05	-1085.21	-0.598145
0.05005	-1080.32	-0.582886
0.0501	-1080.93	-0.585938
0.05015	-1076.05	-0.598145
0.0502	-1077.88	-0.592041
0.05025	-1081.54	-0.598145
0.0503	-1082.76	-0.588989
0.05035	-1084.59	-0.601196
0.0504	-1079.1	-0.588989
0.05045	-1076.66	-0.598145
0.0505	-1086.43	-0.585938
0.05055	-1083.37	-0.582886
0.0506	-1088.26	-0.595093
0.05065	-1077.27	-0.585938
0.0507	-1079.1	-0.598145
0.05075	-1080.93	-0.576782
0.0508	-1079.71	-0.588989
0.05085	-1079.1	-0.582886
0.0509	-1074.22	-0.585938
0.05095	-1072.39	-0.592041
0.051	-1074.22	-0.576782
0.05105	-1080.32	-0.592041
0.0511	-1078.49	-0.57373
0.05115	-1071.78	-0.576782
0.0512	-1080.32	-0.585938
0.05125	-1074.83	-0.576782
0.0513	-1065.67	-0.582886
0.05135	-1079.1	-0.576782
0.0514	-1083.37	-0.582886
0.05145	-1066.89	-0.57373
0.0515	-1072.39	-0.576782
0.05155	-1066.28	-0.576782
0.0516	-1075.44	-0.576782
0.05165	-1078.49	-0.57373
0.0517	-1080.93	-0.579834
0.05175	-1079.71	-0.576782
0.0518	-1073	-0.570679
0.05185	-1075.44	-0.588989
0.0519	-1078.49	-0.576782
0.05195	-1076.05	-0.588989
0.052	-1079.71	-0.579834
0.05205	-1086.43	-0.579834
0.0521	-1083.37	-0.585938
0.05215	-1079.71	-0.576782
0.0522	-1080.93	-0.588989
0.05225	-1072.39	-0.57373
0.0523	-1076.66	-0.592041
0.05235	-1066.89	-0.588989
0.0524	-1083.37	-0.588989
0.05245	-1087.04	-0.585938
0.0525	-1080.93	-0.576782
0.05255	-1084.59	-0.588989
0.0526	-1084.59	-0.582886
0.05265	-1081.54	-0.592041
0.0527	-1085.21	-0.57373
0.05275	-1075.44	-0.585938
0.0528	-1088.87	-0.585938
0.05285	-1079.1	-0.570679
0.0529	-1071.78	-0.592041
0.05295	-1076.66	-0.585938
0.053	-1079.71	-0.588989
0.05305	-1079.1	-0.585938
0.0531	-1076.66	-0.588989
0.05315	-1079.71	-0.585938
0.0532	-1074.22	-0.576782
0.05325	-1080.93	-0.595093
0.0533	-1083.37	-0.57373
0.05335	-1073.61	-0.592041
0.0534	-1069.95	-0.570679
0.05345	-1082.15	-0.582886
0.0535	-1084.59	-0.576782
0.05355	-1076.05	-0.576782
0.0536	-1079.71	-0.604248
0.05365	-1073.61	-0.585938
0.0537	-1080.32	-0.601196
0.05375	-1081.54	-0.585938
0.0538	-1082.76	-0.585938
0.05385	-1079.1	-0.579834
0.0539	-1078.49	-0.588989
0.05395	-1088.26	-0.582886
0.054	-1074.22	-0.582886
0.05405	-1083.98	-0.585938
0.0541	-1077.88	-0.576782
0.05415	-1080.32	-0.585938
0.0542	-1077.88	-0.576782
0.05425	-1078.49	-0.57373
0.0543	-1078.49	-0.579834
0.05435	-1083.37	-0.579834
0.0544	-1090.09	-0.588989
0.05445	-1078.49	-0.588989
0.0545	-1069.34	-0.595093
0.05455	-1080.93	-0.588989
0.0546	-1082.76	-0.598145
0.05465	-1085.21	-0.595093
0.0547	-1082.15	-0.588989
0.05475	-1074.83	-0.582886
0.0548	-1080.93	-0.57373
0.05485	-1077.27	-0.585938
0.0549	-1074.83	-0.582886
0.05495	-1075.44	-0.595093
0.055	-1073.61	-0.576782
0.05505	-1077.27	-0.567627
0.0551	-1080.32	-0.576782
0.05515	-1079.1	-0.582886
0.0552	-1078.49	-0.598145
0.05525	-1079.71	-0.57373
0.0553	-1079.1	-0.579834
0.05535	-1078.49	-0.585938
0.0554	-1074.22	-0.585938
0.05545	-1079.71	-0.579834
0.0555	-1082.15	-0.576782
0.05555	-1076.05	-0.576782
0.0556	-1081.54	-0.561523
0.05565	-1076.66	-0.57373
0.0557	-1071.78	-0.576782
0.05575	-1079.1	-0.576782
0.0558	-1076.05	-0.588989
0.05585	-1073.61	-0.585938
0.0559	-1078.49	-0.592041
0.05595	-1077.88	-0.576782
0.056	-1078.49	-0.598145
0.05605	-1083.37	-0.582886
0.0561	-1079.1	-0.592041
0.05615	-1087.04	-0.582886
0.0562	-1085.21	-0.598145
0.05625	-1084.59	-0.598145
0.0563	-1094.97	-0.570679
0.05635	-1087.04	-0.592041
0.0564	-1073.61	-0.585938
0.05645	-1082.76	-0.598145
0.0565	-1075.44	-0.567627
0.05655	-1085.21	-0.579834
0.0566	-1077.27	-0.585938
0.05665	-1080.32	-0.585938
0.0567	-1088.87	-0.598145
0.05675	-1085.21	-0.579834
0.0568	-1081.54	-0.595093
0.05685	-1087.65	-0.576782
0.0569	-1082.15	-0.582886
0.05695	-1089.48	-0.576782
0.057	-1089.48	-0.57373
0.05705	-1090.7	-0.585938
0.0571	-1084.59	-0.570679
0.05715	-1076.05	-0.588989
0.0572	-1085.21	-0.570679
0.05725	-1078.49	-0.582886
0.0573	-1078.49	-0.582886
0.05735	-1084.59	-0.588989
0.0574	-1081.54	-0.588989
0.05745	-1080.32	-0.585938
0.0575	-1077.88	-0.601196
0.05755	-1077.27	-0.576782
0.0576	-1082.15	-0.582886
0.05765	-1078.49	-0.585938
0.0577	-1076.05	-0.592041
0.05775	-1083.37	-0.595093
0.0578	-1083.37	-0.57373
0.05785	-1080.32	-0.588989
0.0579	-1082.76	-0.582886
0.05795	-1077.27	-0.604248
0.058	-1077.27	-0.582886
0.05805	-1079.1	-0.588989
0.0581	-1077.27	-0.576782
0.05815	-1088.26	-0.567627
0.0582	-1080.32	-0.585938
0.05825	-1083.37	-0.57373
0.0583	-1087.65	-0.588989
0.05835	-1087.04	-0.582886
0.0584	-1087.04	-0.588989
0.05845	-1083.98	-0.588989
0.0585	-1077.88	-0.57373
0.05855	-1079.71	-0.592041
0.0586	-1084.59	-0.588989
0.05865	-1080.93	-0.598145
0.0587	-1077.88	-0.585938
0.05875	-1086.43	-0.592041
0.0588	-1091.92	-0.582886
0.05885	-1087.04	-0.582886
0.0589	-1090.09	-0.582886
0.05895	-1078.49	-0.585938
0.059	-1081.54	-0.595093
0.05905	-1082.15	-0.582886
0.0591	-1080.32	-0.598145
0.05915	-1079.71	-0.582886
0.0592	-1083.37	-0.585938
0.05925	-1082.76	-0.585938
0.0593	-1088.26	-0.585938
0.05935	-1079.1	-0.585938
0.0594	-1087.04	-0.582886
0.05945	-1080.93	-0.598145
0.0595	-1073	-0.582886
0.05955	-1076.66	-0.582886
0.0596	-1081.54	-0.57373
0.05965	-1077.88	-0.576782
0.0597	-1085.21	-0.576782
0.05975	-1074.22	-0.57373
0.0598	-1079.71	-0.579834
0.05985	-1083.37	-0.561523
0.0599	-1082.76	-0.576782
0.05995	-1083.98	-0.570679
0.06	-1079.1	-0.561523
0.06005	-1080.93	-0.558472
0.0601	-1077.27	-0.537109
0.06015	-1082.15	-0.552368
0.0602	-1074.83	-0.543213
0.06025	-1074.22	-0.543213
0.0603	-1075.44	-0.540161
0.06035	-1080.93	-0.540161
0.0604	-1077.27	-0.527954
0.06045	-1079.1	-0.521851
0.0605	-1085.21	-0.527954
0.06055	-1080.93	-0.506592
0.0606	-1085.82	-0.515747
0.06065	-1079.71	-0.500488
0.0607	-1077.88	-0.500488
0.06075	-1080.93	-0.491333
0.0608	-1077.88	-0.476074
0.06085	-1077.27	-0.476074
0.0609	-1071.17	-0.45166
0.06095	-1082.15	-0.476074
0.061	-1077.27	-0.448608
0.06105	-1070.56	-0.448608
0.0611	-1074.22	-0.424194
0.06115	-1076.05	-0.424194
0.0612	-1087.04	-0.411987
0.06125	-1078.49	-0.390625
0.0613	-1070.56	-0.405884
0.06135	-1080.32	-0.369263
0.0614	-1073	-0.378418
0.06145	-1082.15	-0.357056
0.0615	-1080.32	-0.338745
0.06155	-1083.98	-0.338745
0.0616	-1076.05	-0.32959
0.06165	-1073	-0.32959
0.0617	-1079.71	-0.299072
0.06175	-1077.27	-0.289917
0.0618	-1076.66	-0.262451
0.06185	-1079.71	-0.262451
0.0619	-1087.65	-0.244141
0.06195	-1074.83	-0.222778
0.062	-1076.66	-0.219727
0.06205	-1080.93	-0.177002
0.0621	-1080.93	-0.177002
0.06215	-1080.32	-0.143433
0.0622	-1079.1	-0.140381
0.06225	-1074.83	-0.125122
0.0623	-1072.39	-0.100708
0.06235	-1074.83	-0.0793457
0.0624	-1079.1	-0.0518799
0.06245	-1080.32	-0.0457764
0.0625	-1084.59	-0.012207
0.06255	-1077.88	-0.0152588
0.0626	-1074.83	0.0213623
0.06265	-1069.95	0.0396729
0.0627	-1072.39	0.0640869
0.06275	-1073.61	0.0854492
0.0628	-1077.88	0.100708
0.06285	-1073.61	0.140381
0.0629	-1081.54	0.158691
0.06295	-1082.76	0.189209
0.063	-1082.76	0.201416
0.06305	-1079.71	0.231934
0.0631	-1079.71	0.262451
0.06315	-1082.76	0.280762
0.0632	-1090.7	0.320435
0.06325	-1088.26	0.326538
0.0633	-1092.53	0.369263
0.06335	-1086.43	0.396729
0.0634	-1088.87	0.43335
0.06345	-1091.92	0.463867
0.0635	-1081.54	0.488281
0.06355	-1088.87	0.527954
0.0636	-1090.09	0.549316
0.06365	-1086.43	0.585938
0.0637	-1086.43	0.601196
0.06375	-1082.76	0.631714
0.0638	-1082.76	0.671387
0.06385	-1080.32	0.698853
0.0639	-1074.22	0.726318
0.06395	-1077.27	0.750732
0.064	-1082.15	0.799561
0.06405	-1085.82	0.83313
0.0641	-1082.76	0.872803
0.06415	-1071.78	0.90332
0.0642	-1083.98	0.93689
0.06425	-1080.32	0.991821
0.0643	-1083.37	1.00403
0.06435	-1079.1	1.05286
0.0644	-1075.44	1.07727
0.06445	-1080.93	1.1261
0.0645	-1085.21	1.15051
0.06455	-1080.32	1.18408
0.0646	-1077.27	1.22681
0.06465	-1077.27	1.26343
0.0647	-1081.54	1.3092
0.06475	-1076.05	1.32751
0.0648	-1083.37	1.3855
0.06485	-1080.93	1.41907
0.0649	-1071.17	1.45264
0.06495	-1071.17	1.48926
0.065	-1078.49	1.52893
0.06505	-1077.88	1.57166
0.0651	-1074.22	1.58997
0.06515	-1083.37	1.6449
0.0652	-1077.27	1.68152
0.06525	-1079.1	1.72729
0.0653	-1087.04	1.76697
0.06535	-1088.26	1.81274
0.0654	-1080.32	1.86768
0.06545	-1088.26	1.89514
0.0655	-1080.93	1.94397
0.06555	-1075.44	1.98975
0.0656	-1079.71	2.03247
0.06565	-1077.88	2.0813
0.0657	-1081.54	2.13013
0.06575	-1084.59	2.17285
0.0658	-1083.98	2.20337
0.06585	-1077.88	2.27051
0.0659	-1075.44	2.29492
0.06595	-1081.54	2.35291
0.066	-1077.27	2.37122
0.06605	-1081.54	2.4292
0.0661	-1085.21	2.48108
0.06615	-1081.54	2.5177
0.0662	-1081.54	2.56653
0.06625	-1080.93	2.59399
0.0663	-1080.32	2.65198
0.06635	-1079.71	2.6825
0.0664	-1083.98	2.74658
0.06645	-1076.05	2.79541
0.0665	-1074.22	2.83813
0.06655	-1073.61	2.89307
0.0666	-1079.71	2.92358
0.06665	-1077.88	2.99683
0.0667	-1076.05	3.02429
0.06675	-1082.15	3.08533
0.0668	-1084.59	3.12805
0.06685	-1080.32	3.18604
0.0669	-1075.44	3.23486
0.06695	-1091.92	3.27454
0.067	-1091.92	3.32947
0.06705	-1088.26	3.36609
0.0671	-1083.98	3.42102
0.06715	-1072.39	3.4668
0.0672	-1085.82	3.51563
0.06725	-1080.93	3.56445
0.0673	-1082.15	3.59802
0.06735	-1078.49	3.65906
0.0674	-1084.59	3.70178
0.06745	-1084.59	3.76282
0.0675	-1079.1	3.79639
0.06755	-1079.71	3.85437
0.0676	-1087.04	3.89709
0.06765	-1087.65	3.94592
0.0677	-1090.7	4.00085
0.06775	-1083.98	4.04663
0.0678	-1085.82	4.11377
0.06785	-1089.48	4.15955
0.0679	-1083.98	4.21753
0.06795	-1077.88	4.26331
0.068	-1087.04	4.30298
0.06805	-1078.49	4.35791
0.0681	-1091.92	4.41284
0.06815	-1084.59	4.47693
0.0682	-1078.49	4.50745
0.06825	-1081.54	4.57153
0.0683	-1081.54	4.62036
0.06835	-1082.15	4.66614
0.0684	-1089.48	4.71497
0.06845	-1071.78	4.7699
0.0685	-1081.54	4.83093
0.06855	-1081.54	4.86755
0.0686	-1078.49	4.93469
0.06865	-1080.93	4.98047
0.0687	-1082.76	5.04761
0.06875	-1079.1	5.09338
0.0688	-1075.44	5.14526
0.06885	-1083.37	5.19714
0.0689	-1074.83	5.23987
0.06895	-1077.88	5.30701
0.069	-1071.17	5.35889
0.06905	-1074.22	5.41992
0.0691	-1090.09	5.46875
0.06915	-1075.44	5.51758
0.0692	-1073.61	5.57556
0.06925	-1076.05	5.61829
0.0693	-1073	5.68237
0.06935	-1079.71	5.7373
0.0694	-1079.71	5.79834
0.06945	-1078.49	5.85632
0.0695	-1083.98	5.91431
0.06955	-1088.26	5.96924
0.0696	-1075.44	5.99976
0.06965	-1076.66	6.06689
0.0697	-1077.88	6.11267
0.06975	-1076.66	6.17981
0.0698	-1083.37	6.23169
0.06985	-1080.93	6.29272
0.0699	-1073	6.34155
0.06995	-1074.22	6.39343
0.07	-1073.61	6.45752
0.07005	-1076.05	6.49414
0.0701	-1077.27	6.57043
0.07015	-1078.49	6.61621
0.0702	-1077.27	6.67725
0.07025	-1080.93	6.72607
0.0703	-1077.27	6.79016
0.07035	-1076.05	6.85425
0.0704	-1076.05	6.89392
0.07045	-1082.76	6.95801
0.0705	-1083.37	7.00073
0.07055	-1081.54	7.06177
0.0706	-1080.32	7.11365
0.07065	-1080.32	7.16248
0.0707	-1078.49	7.23572
0.07075	-1080.93	7.27539
0.0708	-1083.98	7.34253
0.07085	-1077.27	7.39136
0.0709	-1080.93	7.45239
0.07095	-1078.49	7.49817
0.071	-1075.44	7.5592
0.07105	-1076.66	7.61414
0.0711	-1074.83	7.66602
0.07115	-1081.54	7.73315
0.0712	-1085.21	7.78503
0.07125	-1087.04	7.85217
0.0713	-1076.66	7.89185
0.07135	-1082.15	7.95288
0.0714	-1080.93	8.00781
0.07145	-1081.54	8.0658
0.0715	-1080.93	8.13293
0.07155	-1078.49	8.16956
0.0716	-1074.83	8.22754
0.07165	-1089.48	8.28552
0.0717	-1083.98	8.36487
0.07175	-1085.21	8.41675
0.0718	-1081.54	8.46558
0.07185	-1083.37	8.52051
0.0719	-1086.43	8.57544
0.07195	-1093.14	8.64868
0.072	-1076.05	8.68225
0.07205	-1080.32	8.7616
0.0721	-1076.66	8.81653
0.07215	-1080.93	8.88672
0.0722	-1079.1	8.94165
0.07225	-1087.04	8.97827
0.0723	-1084.59	9.05457
0.07235	-1087.65	9.10034
0.0724	-1077.88	9.16443
0.07245	-1080.32	9.20715
0.0725	-1085.21	9.26514
0.07255	-1080.93	9.33533
0.0726	-1082.15	9.39331
0.07265	-1086.43	9.44519
0.0727	-1073	9.49402
0.07275	-1085.21	9.56421
0.0728	-1079.1	9.61609
0.07285	-1079.71	9.67407
0.0729	-1094.36	9.7229
0.07295	-1096.19	9.79919
0.073	-1090.7	9.84802
0.07305	-1088.26	9.8877
0.0731	-1086.43	9.97314
0.07315	-1088.26	10.0189
0.0732	-1088.26	10.083
0.07325	-1091.92	10.1349
0.0733	-1091.31	10.1929
0.07335	-1093.75	10.26
0.0734	-1087.04	10.3058
0.07345	-1093.14	10.3668
0.0735	-1093.75	10.4187
0.07355	-1087.65	10.4767
0.0736	-1085.82	10.5286
0.07365	-1094.36	10.5835
0.0737	-1088.87	10.6659
0.07375	-1087.65	10.7117
0.0738	-1078.49	10.7758
0.07385	-1091.92	10.8154
0.0739	-1087.04	10.8734
0.07395	-1090.7	10.9253
0.074	-1094.97	10.9894
0.07405	-1096.19	11.0443
0.0741	-1090.7	11.0992
0.07415	-1086.43	11.1572
0.0742	-1089.48	11.203
0.07425	-1095.58	11.2885
0.0743	-1098.63	11.319
0.07435	-1091.31	11.3892
0.0744	-1106.57	11.441
0.07445	-1093.14	11.5112
0.0745	-1093.14	11.5692
0.07455	-1091.31	11.6119
0.0746	-1096.8	11.6699
0.07465	-1098.02	11.7218
0.0747	-1098.63	11.7828
0.07475	-1101.68	11.8408
0.0748	-1103.52	11.9049
0.07485	-1104.74	11.9568
0.0749	-1097.41	12.0148
0.07495	-1096.19	12.0758
0.075	-1101.68	12.1155
0.07505	-1101.68	12.1857
0.0751	-1109.01	12.2345
0.07515	-1103.52	12.3047
0.0752	-1113.89	12.3596
0.07525	-1115.11	12.4084
0.0753	-1109.01	12.4756
0.07535	-1110.23	12.5305
0.0754	-1110.23	12.5885
0.07545	-1102.91	12.6312
0.0755	-1109.01	12.6953
0.07555	-1113.89	12.738
0.0756	-1115.72	12.8052
0.07565	-1110.23	12.8723
0.0757	-1118.77	12.9181
0.07575	-1118.77	12.9913
0.0758	-1109.01	13.028
0.07585	-1118.77	13.089
0.0759	-1120.61	13.147
0.07595	-1108.4	13.205
0.076	-1116.94	13.269
0.07605	-1116.33	13.3148
0.0761	-1115.72	13.3759
0.07615	-1115.72	13.4277
0.0762	-1109.62	13.4918
0.07625	-1117.55	13.5406
0.0763	-1117.55	13.6047
0.07635	-1120.61	13.6566
0.0764	-1126.1	13.7054
0.07645	-1119.38	13.7634
0.0765	-1127.32	13.8275
0.07655	-1123.05	13.8947
0.0766	-1127.32	13.9404
0.07665	-1135.25	13.9923
0.0767	-1128.54	14.0503
0.07675	-1133.42	14.1022
0.0768	-1143.8	14.1693
0.07685	-1136.47	14.209
0.0769	-1131.59	14.2761
0.07695	-1140.14	14.3219
0.077	-1134.64	14.389
0.07705	-1146.85	14.447
0.0771	-1140.75	14.505
0.07715	-1152.34	14.5569
0.0772	-1147.46	14.6027
0.07725	-1162.11	14.679
0.0773	-1164.55	14.7125
0.07735	-1163.33	14.7858
0.0774	-1159.67	14.8438
0.07745	-1162.11	14.8987
0.0775	-1167.6	14.9445
0.07755	-1161.5	14.9994
0.0776	-1164.55	15.0665
0.07765	-1170.65	15.1123
0.0777	-1162.72	15.1794
0.07775	-1171.26	15.2374
0.0778	-1168.82	15.2985
0.07785	-1171.26	15.332
0.0779	-1168.21	15.3931
0.07795	-1170.04	15.448
0.078	-1181.64	15.4907
0.07805	-1185.3	15.5548
0.0781	-1187.13	15.5945
0.07815	-1182.25	15.6525
0.0782	-1185.3	15.7013
0.07825	-1188.35	15.7654
0.0783	-1196.9	15.8173
0.07835	-1188.96	15.8478
0.0784	-1198.12	15.9149
0.07845	-1210.33	15.9546
0.0785	-1201.78	16.0095
0.07855	-1201.78	16.0522
0.0786	-1207.89	16.1102
0.07865	-1213.38	16.1591
0.0787	-1213.38	16.2018
0.07875	-1207.89	16.2628
0.0788	-1216.43	16.2933
0.07885	-1210.33	16.3544
0.0789	-1207.28	16.3818
0.07895	-1207.89	16.4459
0.079	-1219.48	16.4886
0.07905	-1215.21	16.5222
0.0791	-1212.16	16.5741
0.07915	-1214.6	16.6016
0.0792	-1210.94	16.6504
0.07925	-1213.99	16.6931
0.0793	-1206.67	16.748
0.07935	-1221.92	16.7786
0.0794	-1206.67	16.8243
0.07945	-1215.82	16.8762
0.0795	-1212.77	16.9128
0.07955	-1217.04	16.9556
0.0796	-1213.38	16.9952
0.07965	-1215.82	17.0319
0.0797	-1221.31	17.0654
0.07975	-1216.43	17.1204
0.0798	-1210.33	17.1478
0.07985	-1210.94	17.1722
0.0799	-1221.92	17.218
0.07995	-1209.11	17.2424
0.08	-1221.31	17.3035
0.08005	-1212.16	17.3218
0.0801	-1216.43	17.3676
0.08015	-1215.82	17.3889
0.0802	-1218.26	17.4225
0.08025	-1221.31	17.4622
0.0803	-1212.77	17.4774
0.08035	-1214.6	17.5201
0.0804	-1225.59	17.5415
0.08045	-1228.03	17.5842
0.0805	-1221.31	17.6117
0.08055	-1224.98	17.627
0.0806	-1223.75	17.6575
0.08065	-1224.37	17.688
0.0807	-1223.14	17.7429
0.08075	-1226.81	17.749
0.0808	-1227.42	17.7856
0.08085	-1220.09	17.8192
0.0809	-1217.65	17.8406
0.08095	-1210.33	17.868
0.081	-1211.55	17.8772
0.08105	-1209.11	17.9138
0.0811	-1217.65	17.9291
0.08115	-1209.11	17.9596
0.0812	-1206.67	17.9657
0.08125	-1209.11	18.0054
0.0813	-1212.16	18.0267
0.08135	-1206.67	18.0359
0.0814	-1207.28	18.0664
0.08145	-1204.22	18.0878
0.0815	-1205.44	18.1244
0.08155	-1199.95	18.1183
0.0816	-1207.28	18.1549
0.08165	-1207.89	18.1793
0.0817	-1207.28	18.1946
0.08175	-1206.67	18.2129
0.0818	-1210.33	18.2251
0.08185	-1203.61	18.2617
0.0819	-1209.72	18.2526
0.08195	-1204.83	18.277
0.082	-1203.61	18.2983
0.08205	-1210.94	18.3136
0.0821	-1201.17	18.3228
0.08215	-1203	18.3258
0.0822	-1196.9	18.3563
0.08225	-1193.24	18.3472
0.0823	-1201.78	18.3746
0.08235	-1203	18.3929
0.0824	-1205.44	18.4174
0.08245	-1201.17	18.4204
0.0825	-1204.83	18.4326
0.08255	-1203.61	18.4509
0.0826	-1194.46	18.4479
0.08265	-1198.73	18.4723
0.0827	-1193.24	18.4753
0.08275	-1198.12	18.5059
0.0828	-1186.52	18.4906
0.08285	-1189.58	18.5089
0.0829	-1188.35	18.5242
0.08295	-1196.29	18.5211
0.083	-1185.91	18.5608
0.08305	-1190.8	18.5577
0.0831	-1190.19	18.573
0.08315	-1184.69	18.576
0.0832	-1182.25	18.5913
0.08325	-1181.64	18.6127
0.0833	-1190.8	18.6127
0.08335	-1176.76	18.6371
0.0834	-1183.47	18.6218
0.08345	-1186.52	18.6401
0.0835	-1188.96	18.6462
0.08355	-1185.3	18.6615
0.0836	-1189.58	18.6768
0.08365	-1185.91	18.6737
0.0837	-1181.64	18.6829
0.08375	-1188.35	18.6768
0.0838	-1178.59	18.6981
0.08385	-1180.42	18.6859
0.0839	-1180.42	18.7042
0.08395	-1171.26	18.7042
0.084	-1168.21	18.7164
0.08405	-1188.35	18.7225
0.0841	-1175.54	18.7256
0.08415	-1171.26	18.7469
0.0842	-1170.04	18.7378
0.08425	-1179.2	18.7683
0.0843	-1169.43	18.7683
0.08435	-1171.88	18.7683
0.0844	-1170.65	18.7927
0.08445	-1171.26	18.7927
0.0845	-1168.82	18.8049
0.08455	-1162.72	18.7988
0.0846	-1174.93	18.8263
0.08465	-1170.04	18.8202
0.0847	-1173.71	18.8293
0.08475	-1163.94	18.8354
0.0848	-1163.33	18.8385
0.08485	-1165.16	18.8507
0.0849	-1168.21	18.8354
0.08495	-1165.16	18.8568
0.085	-1151.73	18.8507
0.08505	-1164.55	18.8568
0.0851	-1159.67	18.8599
0.08515	-1162.11	18.866
0.0852	-1165.16	18.8721
0.08525	-1171.26	18.8751
0.0853	-1163.94	18.8934
0.08535	-1162.11	18.8721
0.0854	-1164.55	18.8904
0.08545	-1165.16	18.8904
0.0855	-1166.38	18.8873
0.08555	-1173.1	18.8934
0.0856	-1168.21	18.8995
0.08565	-1160.89	18.9117
0.0857	-1165.77	18.9026
0.08575	-1163.33	18.9148
0.0858	-1154.17	18.9117
0.08585	-1161.5	18.9209
0.0859	-1160.89	18.9087
0.08595	-1157.23	18.9178
0.086	-1156.62	18.9331
0.08605	-1162.72	18.9117
0.0861	-1156.62	18.9392
0.08615	-1159.06	18.927
0.0862	-1154.79	18.9362
0.08625	-1149.9	18.9301
0.0863	-1147.46	18.9301
0.08635	-1151.73	18.9423
0.0864	-1155.4	18.9362
0.08645	-1150.51	18.9545
0.0865	-1145.63	18.9423
0.08655	-1151.12	18.9453
0.0866	-1148.07	18.9392
0.08665	-1151.73	18.9362
0.0867	-1145.02	18.9545
0.08675	-1146.85	18.9484
0.0868	-1154.17	18.9575
0.08685	-1146.24	18.9484
0.0869	-1157.23	18.9453
0.08695	-1143.8	18.9453
0.087	-1146.85	18.9545
0.08705	-1147.46	18.9636
0.0871	-1138.31	18.9453
0.08715	-1143.19	18.9606
0.0872	-1146.85	18.9545
0.08725	-1151.12	18.9697
0.0873	-1149.9	18.9667
0.08735	-1146.85	18.9667
0.0874	-1145.02	18.9514
0.08745	-1145.02	18.9453
0.0875	-1148.07	18.9636
0.08755	-1149.29	18.9636
0.0876	-1143.8	18.9758
0.08765	-1147.46	18.9606
0.0877	-1151.12	18.9575
0.08775	-1144.41	18.9575
0.0878	-1146.24	18.9667
0.08785	-1144.41	18.985
0.0879	-1143.8	18.9697
0.08795	-1136.47	18.9758
0.088	-1130.37	18.9545
0.08805	-1145.02	18.9819
0.0881	-1135.86	18.9789
0.08815	-1133.42	18.9758
0.0882	-1130.98	18.9728
0.08825	-1126.71	18.9697
0.0883	-1130.98	18.985
0.08835	-1130.98	18.9728
0.0884	-1134.03	18.9911
0.08845	-1132.2	18.9758
0.0885	-1142.58	18.9758
0.08855	-1128.54	18.985
0.0886	-1127.93	18.9819
0.08865	-1129.76	18.9758
0.0887	-1120.61	18.9697
0.08875	-1123.66	18.9819
0.0888	-1132.2	18.9728
0.08885	-1123.05	18.9819
0.0889	-1129.76	18.9697
0.08895	-1123.66	18.9728
0.089	-1126.71	18.9728
0.08905	-1121.22	18.9575
0.0891	-1118.77	18.9697
0.08915	-1130.98	18.9697
0.0892	-1118.16	18.985
0.08925	-1124.88	18.9789
0.0893	-1120	18.9728
0.08935	-1129.76	18.9758
0.0894	-1128.54	18.9728
0.08945	-1126.1	18.9789
0.0895	-1121.83	18.9545
0.08955	-1121.22	18.9789
0.0896	-1126.71	18.9728
0.08965	-1118.77	18.985
0.0897	-1127.93	18.988
0.08975	-1116.33	18.985
0.0898	-1123.05	19.0063
0.08985	-1116.94	18.988
0.0899	-1116.94	18.988
0.08995	-1122.44	18.9819
0.09	-1117.55	18.9911
0.09005	-1115.11	18.985
0.0901	-1116.94	18.9758
0.09015	-1115.11	19.0002
0.0902	-1123.66	18.988
0.09025	-1118.16	18.9911
0.0903	-1123.66	18.9819
0.09035	-1128.54	18.9911
0.0904	-1112.06	18.9819
0.09045	-1118.16	18.988
0.0905	-1120	19.0033
0.09055	-1110.23	18.9819
0.0906	-1121.22	18.988
0.09065	-1115.11	18.9941
0.0907	-1116.33	18.9972
0.09075	-1118.77	18.988
0.0908	-1120	18.985
0.09085	-1108.4	19.0002
0.0909	-1115.72	18.988
0.09095	-1112.06	18.9819
0.091	-1115.11	18.9789
0.09105	-1120.61	18.9972
0.0911	-1118.16	18.9789
0.09115	-1113.28	18.9819
0.0912	-1105.96	18.9789
0.09125	-1109.62	18.9667
0.0913	-1116.94	18.985
0.09135	-1113.89	18.9697
0.0914	-1115.72	18.985
0.09145	-1115.72	18.9758
0.0915	-1112.67	18.985
0.09155	-1113.89	18.988
0.0916	-1102.91	18.9789
0.09165	-1121.83	18.9972
0.0917	-1117.55	18.988
0.09175	-1113.89	19.0033
0.0918	-1113.28	18.9941
0.09185	-1105.96	19.0002
0.0919	-1120	18.985
0.09195	-1109.01	18.988
0.092	-1113.28	18.9911
0.09205	-1114.5	18.988
0.0921	-1110.23	19.0063
0.09215	-1120.61	18.9789
0.0922	-1112.06	19.0033
0.09225	-1115.11	18.9911
0.0923	-1110.23	18.9941
0.09235	-1116.94	18.9941
0.0924	-1112.06	18.9941
0.09245	-1119.38	18.9941
0.0925	-1116.94	18.985
0.09255	-1122.44	19.0063
0.0926	-1124.27	18.9911
0.09265	-1128.54	18.9972
0.0927	-1118.77	18.988
0.09275	-1115.11	18.985
0.0928	-1116.94	18.985
0.09285	-1123.05	18.9758
0.0929	-1111.45	18.9941
0.09295	-1113.28	18.9789
0.093	-1109.62	18.988
0.09305	-1113.89	18.9819
0.0931	-1118.77	18.985
0.09315	-1106.57	18.9972
0.0932	-1120.61	18.9819
0.09325	-1112.06	19.0002
0.0933	-1109.62	18.9728
0.09335	-1112.06	18.988
0.0934	-1107.79	18.9758
0.09345	-1100.46	18.9789
0.0935	-1120.61	18.9758
0.09355	-1099.24	18.9697
0.0936	-1109.62	18.985
0.09365	-1111.45	18.9728
0.0937	-1102.29	18.9819
0.09375	-1101.07	18.9636
0.0938	-1113.28	18.9728
0.09385	-1104.13	18.9606
0.0939	-1109.01	18.9606
0.09395	-1101.07	18.9728
0.094	-1107.18	18.9667
0.09405	-1096.8	18.9819
0.0941	-1110.84	18.9636
0.09415	-1104.74	18.9636
0.0942	-1100.46	18.9667
0.09425	-1112.06	18.9728
0.0943	-1112.67	18.9728
0.09435	-1109.62	18.9667
0.0944	-1117.55	18.9911
0.09445	-1110.23	18.9636
0.0945	-1105.96	18.9819
0.09455	-1110.23	18.9667
0.0946	-1104.74	18.9697
0.09465	-1110.23	18.9819
0.0947	-1110.23	18.9728
0.09475	-1110.84	18.9911
0.0948	-1110.23	18.9697
0.09485	-1110.23	18.9697
0.0949	-1105.96	18.9636
0.09495	-1112.06	18.9728
0.095	-1108.4	18.9819
0.09505	-1108.4	18.985
0.0951	-1110.23	18.9911
0.09515	-1108.4	18.9667
0.0952	-1099.24	18.9758
0.09525	-1107.18	18.9697
0.0953	-1105.96	18.9819
0.09535	-1111.45	18.9728
0.0954	-1104.13	18.9667
0.09545	-1102.29	18.9697
0.0955	-1105.35	18.9575
0.09555	-1096.19	18.9728
0.0956	-1110.84	18.9636
0.09565	-1102.91	18.9758
0.0957	-1108.4	18.9545
0.09575	-1109.62	18.9484
0.0958	-1105.35	18.9514
0.09585	-1105.35	18.9484
0.0959	-1110.84	18.9606
0.09595	-1104.74	18.9484
0.096	-1107.79	18.9667
0.09605	-1107.79	18.9575
0.0961	-1107.79	18.9697
0.09615	-1110.84	18.9697
0.0962	-1106.57	18.9575
0.09625	-1106.57	18.9636
0.0963	-1095.58	18.9545
0.09635	-1107.18	18.9667
0.0964	-1104.13	18.9545
0.09645	-1102.29	18.9667
0.0965	-1110.23	18.9606
0.09655	-1106.57	18.9545
0.0966	-1096.19	18.9697
0.09665	-1110.23	18.9484
0.0967	-1113.89	18.9667
0.09675	-1098.63	18.9514
0.0968	-1104.13	18.9697
0.09685	-1112.06	18.9636
0.0969	-1113.89	18.9545
0.09695	-1120.61	18.9545
0.097	-1115.72	18.9514
0.09705	-1109.01	18.9697
0.0971	-1116.33	18.9606
0.09715	-1112.67	18.9728
0.0972	-1112.06	18.9636
0.09725	-1118.16	18.9697
0.0973	-1109.62	18.9728
0.09735	-1114.5	18.9606
0.0974	-1109.01	18.9697
0.09745	-1115.11	18.9514
0.0975	-1114.5	18.9697
0.09755	-1116.94	18.9575
0.0976	-1105.35	18.9667
0.09765	-1117.55	18.9697
0.0977	-1112.67	18.9728
0.09775	-1113.28	18.9789
0.0978	-1114.5	18.9575
0.09785	-1118.77	18.9789
0.0979	-1116.33	18.9667
0.09795	-1110.84	18.9636
0.098	-1115.72	18.9667
0.09805	-1104.74	18.9606
0.0981	-1113.28	18.9667
0.09815	-1109.62	18.9575
0.0982	-1114.5	18.9636
0.09825	-1106.57	18.9575
0.0983	-1113.28	18.9697
0.09835	-1107.79	18.9514
0.0984	-1110.23	18.9575
0.09845	-1113.89	18.9667
0.0985	-1105.96	18.9606
0.09855	-1110.84	18.9636
0.0986	-1116.33	18.9514
0.09865	-1109.62	18.9667
0.0987	-1124.27	18.9606
0.09875	-1102.91	18.9606
0.0988	-1115.11	18.9667
0.09885	-1115.11	18.9606
0.0989	-1118.77	18.9636
0.09895	-1107.79	18.9484
0.099	-1124.88	18.9667
0.09905	-1119.38	18.9575
0.0991	-1113.89	18.9545
0.09915	-1115.72	18.9667
0.0992	-1121.83	18.9728
0.09925	-1120.61	18.9636
0.0993	-1118.77	18.9484
0.09935	-1120.61	18.9667
0.0994	-1120.61	18.9545
0.09945	-1113.89	18.9697
0.0995	-1113.28	18.9606
0.09955	-1118.77	18.9667
0.0996	-1120	18.9697
0.09965	-1127.93	18.9545
0.0997	-1124.88	18.9789
0.09975	-1116.33	18.9606
0.0998	-1123.66	18.9697
0.09985	-1118.16	18.9514
0.0999	-1116.94	18.9606
0.09995	-1116.94	18.9697
0.1	-1119.38	18.9575
0.10005	-1117.55	18.9728
0.1001	-1120	18.9545
0.10015	-1127.32	18.9728
0.1002	-1122.44	18.9606
0.10025	-1125.49	18.9728
0.1003	-1118.77	18.9575
0.10035	-1116.33	18.9545
0.1004	-1123.05	18.9575
0.10045	-1115.11	18.9423
0.1005	-1112.67	18.9636
0.10055	-1110.23	18.9545
0.1006	-1113.28	18.9575
0.10065	-1113.89	18.9392
0.1007	-1118.77	18.9575
0.10075	-1113.28	18.9728
0.1008	-1113.89	18.9667
0.10085	-1106.57	18.9819
0.1009	-1120.61	18.9606
0.10095	-1111.45	18.9789
0.101	-1110.84	18.9636
0.10105	-1105.35	18.9606
0.1011	-1112.67	18.9667
0.10115	-1113.89	18.9545
0.1012	-1113.28	18.9636
0.10125	-1104.74	18.9606
0.1013	-1102.29	18.9758
0.10135	-1108.4	18.9606
0.1014	-1106.57	18.9667
0.10145	-1115.11	18.9606
0.1015	-1107.18	18.9484
0.10155	-1110.84	18.9545
0.1016	-1114.5	18.9453
0.10165	-1098.02	18.9575
0.1017	-1103.52	18.9484
0.10175	-1105.35	18.9545
0.1018	-1104.74	18.9575
0.10185	-1105.96	18.9697
0.1019	-1103.52	18.9789
0.10195	-1109.01	18.9697
0.102	-1101.07	18.9728
0.10205	-1104.13	18.9514
0.1021	-1106.57	18.9697
0.10215	-1107.79	18.9728
0.1022	-1102.91	18.9667
0.10225	-1114.5	18.9667
0.1023	-1115.11	18.9636
0.10235	-1109.62	18.9697
0.1024	-1110.23	18.9545
0.10245	-1113.89	18.9667
0.1025	-1110.84	18.9545
0.10255	-1105.96	18.9667
0.1026	-1105.96	18.9667
0.10265	-1107.79	18.9667
0.1027	-1110.23	18.9697
0.10275	-1109.01	18.9545
0.1028	-1110.84	18.9667
0.10285	-1107.18	18.9514
0.1029	-1117.55	18.9575
0.10295	-1108.4	18.9545
0.103	-1103.52	18.9636
0.10305	-1106.57	18.9697
0.1031	-1105.35	18.9575
0.10315	-1104.74	18.9667
0.1032	-1102.91	18.9453
0.10325	-1115.11	18.9575
0.1033	-1102.29	18.9545
0.10335	-1107.79	18.9575
0.1034	-1106.57	18.9667
0.10345	-1110.23	18.9514
0.1035	-1104.74	18.9636
0.10355	-1106.57	18.9575
0.1036	-1104.13	18.9819
0.10365	-1105.96	18.9667
0.1037	-1119.38	18.9789
0.10375	-1106.57	18.9636
0.1038	-1108.4	18.9545
0.10385	-1102.29	18.9789
0.1039	-1101.07	18.9606
0.10395	-1117.55	18.9758
0.104	-1106.57	18.9606
0.10405	-1099.24	18.9606
0.1041	-1106.57	18.9667
0.10415	-1110.84	18.9636
0.1042	-1113.28	18.9636
0.10425	-1120.61	18.9484
0.1043	-1116.94	18.9545
0.10435	-1094.36	18.9423
0.1044	-1110.84	18.9545
0.10445	-1111.45	18.9606
0.1045	-1110.84	18.9606
0.10455	-1104.74	18.9606
0.1046	-1104.74	18.9514
0.10465	-1100.46	18.9575
0.1047	-1109.01	18.9514
0.10475	-1112.06	18.9636
0.1048	-1107.18	18.9484
0.10485	-1112.06	18.9484
0.1049	-1104.13	18.9606
0.10495	-1112.67	18.9636
0.105	-1106.57	18.9636
0.10505	-1106.57	18.9453
0.1051	-1112.06	18.9606
0.10515	-1115.11	18.9453
0.1052	-1110.23	18.9606
0.10525	-1098.63	18.9575
0.1053	-1093.75	18.9453
0.10535	-1109.62	18.9606
0.1054	-1107.79	18.9545
0.10545	-1101.07	18.9606
0.1055	-1111.45	18.9484
0.10555	-1110.84	18.9606
0.1056	-1118.77	18.9575
0.10565	-1105.35	18.9575
0.1057	-1109.01	18.9575
0.10575	-1112.67	18.9606
0.1058	-1116.94	18.9667
0.10585	-1113.89	18.9453
0.1059	-1112.67	18.9545
0.10595	-1112.67	18.9514
0.106	-1110.84	18.9606
0.10605	-1102.29	18.9575
0.1061	-1112.06	18.9575
0.10615	-1107.79	18.9575
0.1062	-1110.84	18.9545
0.10625	-1112.06	18.9667
0.1063	-1103.52	18.9545
0.10635	-1104.13	18.9697
0.1064	-1113.89	18.9667
0.10645	-1117.55	18.9636
0.1065	-1099.85	18.9636
0.10655	-1101.07	18.9453
0.1066	-1103.52	18.9728
0.10665	-1105.96	18.9606
0.1067	-1102.91	18.9636
0.10675	-1101.68	18.9606
0.1068	-1114.5	18.9636
0.10685	-1109.01	18.9545
0.1069	-1116.33	18.9545
0.10695	-1107.79	18.9758
0.107	-1110.23	18.9575
0.10705	-1109.62	18.9606
0.1071	-1110.23	18.9514
0.10715	-1106.57	18.9484
0.1072	-1109.01	18.9423
0.10725	-1108.4	18.9453
0.1073	-1104.13	18.9667
0.10735	-1110.23	18.9514
0.1074	-1104.74	18.9545
0.10745	-1112.67	18.9484
0.1075	-1107.18	18.9575
0.10755	-1098.63	18.9453
0.1076	-1094.36	18.9423
0.10765	-1102.91	18.9484
0.1077	-1104.13	18.9362
0.10775	-1099.85	18.9484
0.1078	-1098.02	18.9423
0.10785	-1099.85	18.9667
0.1079	-1104.13	18.9545
0.10795	-1102.91	18.9545
0.108	-1101.07	18.9606
0.10805	-1102.91	18.9423
0.1081	-1102.91	18.9606
0.10815	-1101.07	18.9453
0.1082	-1095.58	18.9453
0.10825	-1101.07	18.9423
0.1083	-1102.91	18.9484
0.10835	-1102.91	18.9514
0.1084	-1110.23	18.9545
0.10845	-1108.4	18.9636
0.1085	-1106.57	18.9484
0.10855	-1108.4	18.9575
0.1086	-1102.91	18.9453
0.10865	-1102.29	18.9514
0.1087	-1106.57	18.9514
0.10875	-1098.63	18.9423
0.1088	-1101.68	18.9453
0.10885	-1102.91	18.9392
0.1089	-1100.46	18.9484
0.10895	-1105.96	18.9331
0.109	-1099.85	18.9514
0.10905	-1104.74	18.9453
0.1091	-1110.23	18.9453
0.10915	-1099.24	18.9514
0.1092	-1098.63	18.9423
0.10925	-1103.52	18.9606
0.1093	-1105.35	18.9362
0.10935	-1103.52	18.9484
0.1094	-1105.35	18.9453
0.10945	-1094.36	18.9453
0.1095	-1101.07	18.9514
0.10955	-1109.62	18.9514
0.1096	-1104.74	18.9667
0.10965	-1109.01	18.9362
0.1097	-1104.13	18.9606
0.10975	-1107.18	18.9606
0.1098	-1101.68	18.9606
0.10985	-1112.06	18.9667
0.1099	-1102.29	18.9514
0.10995	-1104.13	18.9545
0.11	-1099.24	18.9423
0.11005	-1106.57	18.9606
0.1101	-1097.41	18.9453
0.11015	-1104.74	18.9606
0.1102	-1099.24	18.9575
0.11025	-1104.74	18.9484
0.1103	-1102.29	18.9484
0.11035	-1108.4	18.9453
0.1104	-1104.13	18.9575
0.11045	-1102.29	18.9301
0.1105	-1102.29	18.9453
0.11055	-1102.29	18.9484
0.1106	-1101.07	18.9514
0.11065	-1097.41	18.9667
0.1107	-1098.63	18.9423
0.11075	-1092.53	18.9606
0.1108	-1091.31	18.9331
0.11085	-1094.97	18.9484
0.1109	-1099.24	18.9453
0.11095	-1098.02	18.9484
0.111	-1105.96	18.9484
0.11105	-1100.46	18.9392
0.1111	-1091.92	18.9484
0.11115	-1096.8	18.9362
0.1112	-1094.36	18.9514
0.11125	-1092.53	18.9423
0.1113	-1095.58	18.9453
0.11135	-1099.85	18.9423
0.1114	-1100.46	18.9453
0.11145	-1091.31	18.9392
0.1115	-1089.48	18.9392
0.11155	-1097.41	18.9453
0.1116	-1101.07	18.9423
0.11165	-1102.91	18.9423
0.1117	-1108.4	18.9392
0.11175	-1101.07	18.9545
0.1118	-1099.85	18.9423
0.11185	-1102.29	18.9423
0.1119	-1104.74	18.9545
0.11195	-1101.68	18.927
0.112	-1107.18	18.9453
0.11205	-1091.92	18.9331
0.1121	-1107.79	18.9362
0.11215	-1098.02	18.9392
0.1122	-1102.91	18.9301
0.11225	-1102.29	18.9453
0.1123	-1094.97	18.9453
0.11235	-1098.02	18.9514
0.1124	-1098.63	18.9453
0.11245	-1098.02	18.9453
0.1125	-1099.85	18.9484
0.11255	-1108.4	18.9423
0.1126	-1094.36	18.9484
0.11265	-1093.14	18.927
0.1127	-1090.09	18.9423
0.11275	-1100.46	18.9301
0.1128	-1105.35	18.9453
0.11285	-1094.36	18.9362
0.1129	-1096.19	18.9362
0.11295	-1100.46	18.9362
0.113	-1097.41	18.927
0.11305	-1099.85	18.9362
0.1131	-1088.87	18.927
0.11315	-1103.52	18.9392
0.1132	-1099.85	18.9392
0.11325	-1097.41	18.9392
0.1133	-1094.36	18.9484
0.11335	-1098.63	18.9331
0.1134	-1093.14	18.9514
0.11345	-1098.02	18.9362
0.1135	-1105.96	18.9453
0.11355	-1094.97	18.927
0.1136	-1104.74	18.9362
0.11365	-1100.46	18.9331
0.1137	-1108.4	18.9362
0.11375	-1112.67	18.9453
0.1138	-1101.07	18.9331
0.11385	-1105.96	18.9392
0.1139	-1104.74	18.9209
0.11395	-1106.57	18.9362
0.114	-1112.67	18.9362
0.11405	-1107.18	18.9453
0.1141	-1101.68	18.9545
0.11415	-1099.85	18.9392
0.1142	-1107.18	18.9514
0.11425	-1099.85	18.924
0.1143	-1098.02	18.9514
0.11435	-1099.85	18.9453
0.1144	-1104.13	18.9453
0.11445	-1092.53	18.9575
0.1145	-1107.79	18.9514
0.11455	-1097.41	18.9667
0.1146	-1101.07	18.9453
0.11465	-1105.96	18.9514
0.1147	-1094.36	18.9514
0.11475	-1098.63	18.9514
0.1148	-1101.68	18.9514
0.11485	-1102.29	18.9453
0.1149	-1107.18	18.9514
0.11495	-1104.74	18.9362
0.115	-1103.52	18.9514
0.11505	-1107.18	18.9362
0.1151	-1110.84	18.9545
0.11515	-1103.52	18.9545
0.1152	-1097.41	18.9423
0.11525	-1106.57	18.9484
0.1153	-1113.28	18.9362
0.11535	-1105.35	18.9514
0.1154	-1097.41	18.9423
0.11545	-1104.13	18.9484
0.1155	-1107.79	18.9575
0.11555	-1107.79	18.9514
0.1156	-1101.07	18.9575
0.11565	-1108.4	18.9453
0.1157	-1104.74	18.9545
0.11575	-1102.91	18.9423
0.1158	-1109.01	18.9575
0.11585	-1105.96	18.9545
0.1159	-1112.06	18.9514
0.11595	-1105.96	18.9514
0.116	-1101.68	18.9545
0.11605	-1102.29	18.9667
0.1161	-1100.46	18.9453
0.11615	-1105.35	18.9606
0.1162	-1100.46	18.9453
0.11625	-1099.24	18.9575
0.1163	-1098.63	18.9667
0.11635	-1098.63	18.9606
0.1164	-1102.29	18.9545
0.11645	-1102.91	18.9453
0.1165	-1108.4	18.9606
0.11655	-1096.8	18.9484
0.1166	-1106.57	18.9606
0.11665	-1101.07	18.9545
0.1167	-1110.84	18.9514
0.11675	-1102.91	18.9697
0.1168	-1102.91	18.9575
0.11685	-1109.01	18.9697
0.1169	-1109.62	18.9606
0.11695	-1104.13	18.9575
0.117	-1097.41	18.9392
0.11705	-1102.91	18.9453
0.1171	-1104.13	18.9575
0.11715	-1097.41	18.9453
0.1172	-1105.35	18.9514
0.11725	-1104.74	18.9423
0.1173	-1112.06	18.9575
0.11735	-1113.89	18.9484
0.1174	-1106.57	18.9575
0.11745	-1117.55	18.9575
0.1175	-1104.13	18.9514
0.11755	-1112.06	18.9575
0.1176	-1115.11	18.9484
0.11765	-1107.18	18.9606
0.1177	-1096.19	18.9484
0.11775	-1107.79	18.9606
0.1178	-1105.96	18.9545
0.11785	-1099.85	18.9606
0.1179	-1101.68	18.9575
0.11795	-1099.85	18.9606
0.118	-1102.91	18.9667
0.11805	-1096.8	18.9423
0.1181	-1099.24	18.9606
0.11815	-1105.35	18.9484
0.1182	-1105.96	18.9392
0.11825	-1104.74	18.9514
0.1183	-1099.85	18.9392
0.11835	-1098.63	18.9514
0.1184	-1096.19	18.9331
0.11845	-1105.96	18.9514
0.1185	-1093.75	18.9453
0.11855	-1095.58	18.9423
0.1186	-1094.36	18.9484
0.11865	-1104.74	18.9514
0.1187	-1104.13	18.9545
0.11875	-1098.63	18.9423
0.1188	-1098.02	18.9575
0.11885	-1104.13	18.9484
0.1189	-1107.79	18.9545
0.11895	-1102.91	18.9575
0.119	-1104.74	18.9514
0.11905	-1104.13	18.9423
0.1191	-1093.75	18.9362
0.11915	-1100.46	18.9484
0.1192	-1100.46	18.9362
0.11925	-1091.92	18.9392
0.1193	-1098.02	18.9423
0.11935	-1099.24	18.9484
0.1194	-1108.4	18.9575
0.11945	-1101.68	18.9423
0.1195	-1098.02	18.9545
0.11955	-1104.74	18.9362
0.1196	-1098.63	18.9453
0.11965	-1096.19	18.9423
0.1197	-1097.41	18.9514
0.11975	-1107.79	18.9392
0.1198	-1104.13	18.9301
0.11985	-1102.91	18.9453
0.1199	-1096.19	18.927
0.11995	-1105.35	18.9484
0.12	-1102.29	18.9484
0.12005	-1095.58	18.9545
0.1201	-1093.14	18.9423
0.12015	-1099.85	18.9453
0.1202	-1098.63	18.9514
0.12025	-1100.46	18.9392
0.1203	-1097.41	18.9575
0.12035	-1093.75	18.9423
0.1204	-1096.19	18.9484
0.12045	-1095.58	18.9392
0.1205	-1095.58	18.9545
0.12055	-1101.68	18.9575
0.1206	-1100.46	18.9453
0.12065	-1094.36	18.9545
0.1207	-1096.19	18.9362
0.12075	-1096.8	18.9484
0.1208	-1104.13	18.9453
0.12085	-1101.68	18.9514
0.1209	-1094.36	18.9606
0.12095	-1090.09	18.9392
0.121	-1091.92	18.9575
0.12105	-1094.97	18.9392
0.1211	-1094.36	18.9514
0.12115	-1094.97	18.9514
0.1212	-1095.58	18.9453
0.12125	-1099.24	18.9484
0.1213	-1094.36	18.9484
0.12135	-1099.85	18.9545
0.1214	-1096.8	18.9453
0.12145	-1096.19	18.9484
0.1215	-1091.31	18.9423
0.12155	-1093.75	18.9545
0.1216	-1089.48	18.9514
0.12165	-1107.18	18.9453
0.1217	-1098.63	18.9514
0.12175	-1101.68	18.9423
0.1218	-1106.57	18.9575
0.12185	-1104.13	18.9484
0.1219	-1101.68	18.9606
0.12195	-1100.46	18.9453
0.122	-1100.46	18.9423
0.12205	-1091.92	18.9423
0.1221	-1113.89	18.927
0.12215	-1097.41	18.9331
0.1222	-1105.35	18.927
0.12225	-1104.13	18.9484
0.1223	-1099.85	18.9392
0.12235	-1104.74	18.9423
0.1224	-1104.74	18.9423
0.12245	-1110.23	18.9392
0.1225	-1110.84	18.9484
0.12255	-1098.63	18.9453
0.1226	-1100.46	18.9545
0.12265	-1097.41	18.9331
0.1227	-1107.79	18.9575
0.12275	-1099.24	18.9545
0.1228	-1091.92	18.9545
0.12285	-1099.24	18.9667
0.1229	-1100.46	18.9575
0.12295	-1105.96	18.9575
0.123	-1101.68	18.9392
0.12305	-1106.57	18.9606
0.1231	-1098.63	18.9575
0.12315	-1107.18	18.9484
0.1232	-1096.8	18.9453
0.12325	-1097.41	18.9514
0.1233	-1110.84	18.9545
0.12335	-1092.53	18.9362
0.1234	-1104.13	18.9484
0.12345	-1107.18	18.9301
0.1235	-1101.68	18.9362
0.12355	-1101.68	18.9392
0.1236	-1091.31	18.9392
0.12365	-1093.75	18.9545
0.1237	-1095.58	18.9362
0.12375	-1098.63	18.9514
0.1238	-1105.96	18.9423
0.12385	-1101.68	18.9362
0.1239	-1105.35	18.9392
0.12395	-1105.96	18.9514
0.124	-1099.24	18.9575
0.12405	-1104.74	18.9301
0.1241	-1102.29	18.9453
0.12415	-1096.19	18.9392
0.1242	-1099.24	18.9392
0.12425	-1105.96	18.9423
0.1243	-1102.29	18.9453
0.12435	-1101.07	18.9453
0.1244	-1111.45	18.9453
0.12445	-1103.52	18.9636
0.1245	-1099.24	18.9545
0.12455	-1095.58	18.9575
0.1246	-1101.68	18.9575
0.12465	-1107.18	18.9606
0.1247	-1109.62	18.9575
0.12475	-1107.18	18.9484
0.1248	-1105.96	18.9636
0.12485	-1103.52	18.9514
0.1249	-1101.07	18.9575
0.12495	-1098.02	18.9453
0.125	-1099.24	18.9575
0.12505	-1096.8	18.9545
0.1251	-1096.8	18.9484
0.12515	-1101.07	18.9636
0.1252	-1097.41	18.9392
0.12525	-1099.85	18.9484
0.1253	-1099.24	18.9362
0.12535	-1096.8	18.9514
0.1254	-1098.63	18.9362
0.12545	-1089.48	18.9453
0.1255	-1097.41	18.9545
0.12555	-1097.41	18.9392
0.1256	-1098.63	18.9606
0.12565	-1094.97	18.9453
0.1257	-1099.85	18.9575
0.12575	-1091.31	18.9392
0.1258	-1088.87	18.9484
0.12585	-1093.14	18.9484
0.1259	-1093.14	18.9392
0.12595	-1092.53	18.9453
0.126	-1095.58	18.9331
0.12605	-1090.09	18.9453
0.1261	-1093.14	18.927
0.12615	-1093.14	18.9392
0.1262	-1094.36	18.9545
0.12625	-1096.8	18.9362
0.1263	-1087.04	18.9514
0.12635	-1092.53	18.9392
0.1264	-1088.87	18.9545
0.12645	-1077.88	18.9453
0.1265	-1093.75	18.9575
0.12655	-1091.31	18.9545
0.1266	-1087.04	18.9423
0.12665	-1083.98	18.9484
0.1267	-1093.14	18.9453
0.12675	-1088.26	18.9484
0.1268	-1091.92	18.9423
0.12685	-1096.19	18.9514
0.1269	-1102.91	18.9453
0.12695	-1088.87	18.9423
0.127	-1096.19	18.9514
0.12705	-1090.7	18.9392
0.1271	-1099.24	18.9423
0.12715	-1101.68	18.9331
0.1272	-1091.31	18.9453
0.12725	-1099.24	18.9453
0.1273	-1098.02	18.9514
0.12735	-1098.02	18.9423
0.1274	-1093.75	18.9514
0.12745	-1097.41	18.9484
0.1275	-1090.09	18.9392
0.12755	-1088.26	18.9484
0.1276	-1096.19	18.9362
0.12765	-1088.87	18.9484
0.1277	-1091.31	18.9392
0.12775	-1094.97	18.9453
0.1278	-1095.58	18.9362
0.12785	-1094.97	18.9331
0.1279	-1083.37	18.9484
0.12795	-1092.53	18.9514
0.128	-1094.97	18.9453
0.12805	-1096.19	18.9484
0.1281	-1090.09	18.9514
0.12815	-1091.92	18.9331
0.1282	-1082.76	18.927
0.12825	-1093.14	18.9423
0.1283	-1091.31	18.9331
0.12835	-1095.58	18.9545
0.1284	-1096.8	18.9514
0.12845	-1103.52	18.9453
0.1285	-1107.18	18.9453
0.12855	-1093.75	18.927
0.1286	-1102.29	18.9484
0.12865	-1095.58	18.9392
0.1287	-1084.59	18.9453
0.12875	-1090.09	18.9484
0.1288	-1094.97	18.9514
0.12885	-1097.41	18.9392
0.1289	-1096.8	18.9423
0.12895	-1091.92	18.9606
0.129	-1100.46	18.9392
0.12905	-1100.46	18.9484
0.1291	-1102.29	18.9362
0.12915	-1094.36	18.9514
0.1292	-1101.07	18.9423
0.12925	-1102.91	18.9484
0.1293	-1098.63	18.9514
0.12935	-1096.8	18.9362
0.1294	-1096.19	18.9392
0.12945	-1102.29	18.9331
0.1295	-1095.58	18.9484
0.12955	-1101.07	18.9362
0.1296	-1093.14	18.9392
0.12965	-1095.58	18.9392
0.1297	-1099.85	18.9392
0.12975	-1096.8	18.9453
0.1298	-1102.91	18.9301
0.12985	-1097.41	18.9453
0.1299	-1098.02	18.9362
0.12995	-1101.07	18.9392
0.13	-1099.85	18.9453
0.13005	-1095.58	18.9423
0.1301	-1092.53	18.9392
0.13015	-1091.31	18.927
0.1302	-1105.35	18.9514
0.13025	-1098.63	18.924
0.1303	-1102.91	18.9362
0.13035	-1099.24	18.9362
0.1304	-1100.46	18.9423
0.13045	-1103.52	18.9453
0.1305	-1102.29	18.9331
0.13055	-1100.46	18.9392
0.1306	-1098.63	18.927
0.13065	-1101.68	18.9423
0.1307	-1101.68	18.9301
0.13075	-1097.41	18.9362
0.1308	-1097.41	18.9392
0.13085	-1103.52	18.9301
0.1309	-1105.35	18.9331
0.13095	-1093.75	18.9209
0.131	-1102.91	18.9362
0.13105	-1101.68	18.9331
0.1311	-1101.07	18.9362
0.13115	-1105.96	18.9301
0.1312	-1100.46	18.927
0.13125	-1104.74	18.9392
0.1313	-1101.07	18.924
0.13135	-1098.63	18.9453
0.1314	-1097.41	18.9301
0.13145	-1104.13	18.9362
0.1315	-1099.85	18.9301
0.13155	-1102.91	18.9331
0.1316	-1099.24	18.9423
0.13165	-1092.53	18.9331
0.1317	-1094.36	18.9423
0.13175	-1094.36	18.924
0.1318	-1097.41	18.9392
0.13185	-1087.65	18.9301
0.1319	-1096.8	18.927
0.13195	-1102.29	18.9301
0.132	-1103.52	18.9331
0.13205	-1098.63	18.9392
0.1321	-1106.57	18.924
0.13215	-1096.8	18.9423
0.1322	-1093.14	18.9392
0.13225	-1091.92	18.9392
0.1323	-1094.97	18.9423
0.13235	-1102.91	18.9484
0.1324	-1099.85	18.9545
0.13245	-1088.87	18.9331
0.1325	-1096.19	18.9453
0.13255	-1100.46	18.9362
0.1326	-1090.7	18.9423
0.13265	-1101.68	18.9362
0.1327	-1101.07	18.9392
0.13275	-1102.91	18.9514
0.1328	-1096.19	18.9331
0.13285	-1098.63	18.9423
0.1329	-1085.82	18.9392
0.13295	-1104.13	18.9545
0.133	-1105.96	18.9514
0.13305	-1091.31	18.9423
0.1331	-1090.7	18.9453
0.13315	-1101.68	18.9331
0.1332	-1083.98	18.9453
0.13325	-1091.92	18.9423
0.1333	-1092.53	18.9514
0.13335	-1095.58	18.9362
0.1334	-1088.87	18.9484
0.13345	-1094.36	18.9545
0.1335	-1096.19	18.9484
0.13355	-1091.92	18.9575
0.1336	-1085.21	18.9423
0.13365	-1087.04	18.9484
0.1337	-1099.24	18.9392
0.13375	-1092.53	18.9362
0.1338	-1096.19	18.9301
0.13385	-1088.87	18.9331
0.1339	-1092.53	18.9423
0.13395	-1091.92	18.9301
0.134	-1092.53	18.9423
0.13405	-1091.92	18.9331
0.1341	-1085.82	18.9514
0.13415	-1088.87	18.9423
0.1342	-1088.87	18.9392
0.13425	-1089.48	18.9484
0.1343	-1097.41	18.9453
0.13435	-1096.19	18.9575
0.1344	-1091.31	18.9392
0.13445	-1098.02	18.9545
0.1345	-1094.36	18.9453
0.13455	-1093.14	18.9392
0.1346	-1097.41	18.9453
0.13465	-1085.21	18.9392
0.1347	-1096.8	18.9514
0.13475	-1098.63	18.9362
0.1348	-1093.14	18.9545
0.13485	-1092.53	18.9423
0.1349	-1092.53	18.9545
0.13495	-1096.19	18.9545
0.135	-1092.53	18.9514
0.13505	-1093.75	18.9453
0.1351	-1101.68	18.9392
0.13515	-1090.7	18.9575
0.1352	-1099.24	18.9423
0.13525	-1090.09	18.9545
0.1353	-1092.53	18.9575
0.13535	-1098.63	18.9575
0.1354	-1090.09	18.9484
0.13545	-1089.48	18.9423
0.1355	-1087.65	18.9514
0.13555	-1089.48	18.9392
0.1356	-1088.26	18.9423
0.13565	-1096.19	18.9423
0.1357	-1102.29	18.9514
0.13575	-1089.48	18.9606
0.1358	-1088.87	18.9484
0.13585	-1095.58	18.9606
0.1359	-1091.92	18.9392
0.13595	-1091.31	18.9484
0.136	-1088.26	18.9453
0.13605	-1099.85	18.9514
0.1361	-1087.04	18.9453
0.13615	-1094.36	18.9484
0.1362	-1087.04	18.9545
0.13625	-1093.14	18.9392
0.1363	-1088.87	18.9575
0.13635	-1083.37	18.9453
0.1364	-1093.14	18.9575
0.13645	-1098.02	18.9484
0.1365	-1088.26	18.9453
0.13655	-1085.21	18.9484
0.1366	-1090.7	18.9392
0.13665	-1082.15	18.9545
0.1367	-1083.37	18.9514
0.13675	-1087.65	18.9484
0.1368	-1082.15	18.9331
0.13685	-1081.54	18.9423
0.1369	-1085.82	18.9453
0.13695	-1085.82	18.9392
0.137	-1083.98	18.9545
0.13705	-1083.98	18.9545
0.1371	-1079.71	18.9636
0.13715	-1087.04	18.9392
0.1372	-1084.59	18.9331
0.13725	-1087.04	18.9392
0.1373	-1087.65	18.9301
0.13735	-1078.49	18.9484
0.1374	-1077.88	18.9423
0.13745	-1079.71	18.9575
0.1375	-1080.32	18.9484
0.13755	-1084.59	18.9545
0.1376	-1087.65	18.9606
0.13765	-1088.26	18.9514
0.1377	-1076.05	18.9545
0.13775	-1079.1	18.9362
0.1378	-1082.76	18.9545
0.13785	-1083.98	18.9423
0.1379	-1079.71	18.9453
0.13795	-1080.93	18.9362
0.138	-1081.54	18.9392
0.13805	-1083.98	18.9453
0.1381	-1088.26	18.9453
0.13815	-1080.93	18.9423
0.1382	-1078.49	18.9331
0.13825	-1080.32	18.9331
0.1383	-1093.14	18.9392
0.13835	-1077.88	18.9362
0.1384	-1079.71	18.9453
0.13845	-1082.15	18.927
0.1385	-1084.59	18.9484
0.13855	-1086.43	18.9423
0.1386	-1085.21	18.9484
0.13865	-1084.59	18.927
0.1387	-1079.1	18.9423
0.13875	-1085.21	18.9514
0.1388	-1092.53	18.9362
0.13885	-1088.87	18.9545
0.1389	-1081.54	18.9453
0.13895	-1086.43	18.9636
0.139	-1099.85	18.9392
0.13905	-1083.98	18.9423
0.1391	-1083.98	18.9331
0.13915	-1095.58	18.9423
0.1392	-1078.49	18.9453
0.13925	-1083.37	18.9331
0.1393	-1082.15	18.9423
0.13935	-1080.32	18.9453
0.1394	-1087.65	18.9545
0.13945	-1094.97	18.9545
0.1395	-1084.59	18.9484
0.13955	-1092.53	18.9484
0.1396	-1084.59	18.9514
0.13965	-1082.15	18.9575
0.1397	-1082.76	18.9362
0.13975	-1083.98	18.9545
0.1398	-1090.7	18.9423
0.13985	-1079.1	18.9392
0.1399	-1082.76	18.9392
0.13995	-1091.31	18.9362
0.14	-1082.76	18.9484
0.14005	-1082.15	18.9331
0.1401	-1086.43	18.9514
0.14015	-1091.92	18.9484
0.1402	-1090.09	18.9484
0.14025	-1091.31	18.9423
0.1403	-1090.7	18.9453
0.14035	-1087.04	18.9545
0.1404	-1090.09	18.9331
0.14045	-1091.92	18.9453
0.1405	-1087.65	18.9301
0.14055	-1092.53	18.9453
0.1406	-1096.8	18.9331
0.14065	-1085.21	18.9392
0.1407	-1096.19	18.9484
0.14075	-1087.04	18.9392
0.1408	-1079.1	18.9575
0.14085	-1095.58	18.9453
0.1409	-1098.63	18.9484
0.14095	-1089.48	18.927
0.141	-1088.26	18.9331
0.14105	-1094.36	18.9423
0.1411	-1092.53	18.9331
0.14115	-1087.04	18.9484
0.1412	-1092.53	18.924
0.14125	-1094.97	18.9392
0.1413	-1090.09	18.9331
0.14135	-1090.7	18.9484
0.1414	-1089.48	18.9514
0.14145	-1090.7	18.9453
0.1415	-1090.09	18.9514
0.14155	-1091.92	18.9301
0.1416	-1082.15	18.9453
0.14165	-1093.75	18.9423
0.1417	-1079.1	18.9545
0.14175	-1087.65	18.9453
0.1418	-1095.58	18.9453
0.14185	-1087.04	18.9453
0.1419	-1089.48	18.9453
0.14195	-1088.26	18.9606
0.142	-1090.09	18.9545
0.14205	-1084.59	18.9575
0.1421	-1084.59	18.9453
0.14215	-1087.65	18.9392
0.1422	-1090.09	18.9484
0.14225	-1090.09	18.9453
0.1423	-1085.21	18.9514
0.14235	-1091.92	18.9331
0.1424	-1092.53	18.9484
0.14245	-1091.92	18.9331
0.1425	-1090.09	18.9453
0.14255	-1099.24	18.9423
0.1426	-1096.19	18.9392
0.14265	-1099.85	18.9453
0.1427	-1089.48	18.9392
0.14275	-1094.36	18.9423
0.1428	-1091.92	18.9362
0.14285	-1095.58	18.9453
0.1429	-1091.31	18.9453
0.14295	-1097.41	18.9423
0.143	-1087.04	18.9514
0.14305	-1088.87	18.9362
0.1431	-1098.02	18.9423
0.14315	-1088.87	18.9362
0.1432	-1094.36	18.9453
0.14325	-1099.85	18.9392
0.1433	-1099.85	18.9362
0.14335	-1096.19	18.9423
0.1434	-1097.41	18.9301
0.14345	-1098.02	18.9392
0.1435	-1093.75	18.9178
0.14355	-1102.29	18.9392
0.1436	-1097.41	18.9392
0.14365	-1096.19	18.9606
0.1437	-1095.58	18.9636
0.14375	-1101.07	18.9545
0.1438	-1096.8	18.9453
0.14385	-1087.65	18.9301
0.1439	-1098.63	18.9362
0.14395	-1093.14	18.924
0.144	-1104.74	18.9392
0.14405	-1085.21	18.9423
0.1441	-1088.87	18.9392
0.14415	-1096.8	18.9453
0.1442	-1096.19	18.9423
0.14425	-1098.63	18.9453
0.1443	-1095.58	18.927
0.14435	-1095.58	18.9362
0.1444	-1099.85	18.9362
0.14445	-1093.14	18.9362
0.1445	-1090.7	18.9423
0.14455	-1092.53	18.9301
0.1446	-1091.31	18.9484
0.14465	-1095.58	18.927
0.1447	-1096.8	18.9484
0.14475	-1091.31	18.9423
0.1448	-1096.19	18.9362
0.14485	-1088.26	18.9392
0.1449	-1091.92	18.9392
0.14495	-1086.43	18.9453
0.145	-1091.92	18.9301
0.14505	-1088.87	18.9514
0.1451	-1093.75	18.9453
0.14515	-1096.19	18.9545
0.1452	-1090.7	18.9362
0.14525	-1091.92	18.9362
0.1453	-1090.7	18.9362
0.14535	-1096.8	18.927
0.1454	-1094.97	18.9392
0.14545	-1087.04	18.9178
0.1455	-1093.75	18.9301
0.14555	-1088.87	18.9331
0.1456	-1091.92	18.9453
0.14565	-1088.26	18.9453
0.1457	-1093.14	18.9392
0.14575	-1088.26	18.9362
0.1458	-1083.37	18.927
0.14585	-1089.48	18.9362
0.1459	-1094.97	18.9392
0.14595	-1091.92	18.9392
0.146	-1085.82	18.9362
0.14605	-1088.26	18.9178
0.1461	-1089.48	18.9453
0.14615	-1089.48	18.9362
0.1462	-1098.02	18.9484
0.14625	-1090.7	18.9362
0.1463	-1091.31	18.9392
0.14635	-1093.75	18.9301
0.1464	-1088.26	18.9392
0.14645	-1093.14	18.9423
0.1465	-1091.31	18.9178
0.14655	-1090.7	18.927
0.1466	-1086.43	18.9209
0.14665	-1084.59	18.9301
0.1467	-1092.53	18.9209
0.14675	-1082.15	18.9178
0.1468	-1094.97	18.927
0.14685	-1096.8	18.927
0.1469	-1093.14	18.9362
0.14695	-1092.53	18.9178
0.147	-1099.24	18.9331
0.14705	-1092.53	18.9301
0.1471	-1094.36	18.9301
0.14715	-1096.19	18.9331
0.1472	-1094.36	18.924
0.14725	-1091.31	18.924
0.1473	-1097.41	18.924
0.14735	-1108.4	18.9423
0.1474	-1099.24	18.9209
0.14745	-1096.8	18.924
0.1475	-1099.24	18.927
0.14755	-1094.36	18.927
0.1476	-1098.63	18.9331
0.14765	-1093.75	18.924
0.1477	-1101.07	18.9331
0.14775	-1096.19	18.9209
0.1478	-1091.31	18.9331
0.14785	-1094.36	18.9301
0.1479	-1084.59	18.9331
0.14795	-1087.04	18.9362
0.148	-1088.26	18.924
0.14805	-1082.76	18.9301
0.1481	-1085.21	18.924
0.14815	-1089.48	18.9453
0.1482	-1091.92	18.9362
0.14825	-1087.65	18.9362
0.1483	-1090.7	18.9484
0.14835	-1085.21	18.9392
0.1484	-1081.54	18.9392
0.14845	-1088.87	18.9301
0.1485	-1088.87	18.9453
0.14855	-1081.54	18.9331
0.1486	-1077.27	18.9362
0.14865	-1088.87	18.9392
0.1487	-1084.59	18.927
0.14875	-1083.37	18.9453
0.1488	-1090.09	18.927
0.14885	-1091.31	18.9453
0.1489	-1087.04	18.9331
0.14895	-1079.71	18.9331
0.149	-1090.7	18.9362
0.14905	-1086.43	18.9392
0.1491	-1091.31	18.9331
0.14915	-1094.36	18.927
0.1492	-1094.97	18.9484
0.14925	-1096.8	18.9453
0.1493	-1102.29	18.9514
0.14935	-1091.92	18.9453
0.1494	-1087.65	18.9392
0.14945	-1101.68	18.9514
0.1495	-1090.7	18.9362
0.14955	-1093.14	18.9606
0.1496	-1093.14	18.9301
0.14965	-1096.19	18.9484
0.1497	-1087.04	18.9362
0.14975	-1082.15	18.9514
0.1498	-1092.53	18.9484
0.14985	-1096.8	18.9423
0.1499	-1091.31	18.9514
0.14995	-1090.09	18.9423
0.15	-1093.75	18.9606
0.15005	-1093.14	18.9484
0.1501	-1091.31	18.9484
0.15015	-1090.7	18.9423
0.1502	-1099.85	18.9423
0.15025	-1098.02	18.9514
0.1503	-1094.97	18.9392
0.15035	-1095.58	18.9514
0.1504	-1093.14	18.9362
0.15045	-1099.85	18.9545
0.1505	-1101.07	18.9423
0.15055	-1098.02	18.9423
0.1506	-1102.29	18.9484
0.15065	-1093.75	18.9362
0.1507	-1101.68	18.9484
0.15075	-1098.63	18.9392
0.1508	-1104.13	18.9606
0.15085	-1098.02	18.9423
0.1509	-1103.52	18.9545
0.15095	-1105.35	18.9545
0.151	-1104.74	18.9484
0.15105	-1102.29	18.9545
0.1511	-1098.63	18.9362
0.15115	-1099.24	18.9484
0.1512	-1097.41	18.924
0.15125	-1101.07	18.9362
0.1513	-1099.85	18.9362
0.15135	-1104.74	18.9301
0.1514	-1101.07	18.9423
0.15145	-1098.63	18.9301
0.1515	-1102.91	18.9423
0.15155	-1107.18	18.9362
0.1516	-1107.18	18.9484
0.15165	-1107.79	18.9484
0.1517	-1101.07	18.9484
0.15175	-1110.23	18.9545
0.1518	-1096.19	18.9484
0.15185	-1094.97	18.9575
0.1519	-1102.29	18.9331
0.15195	-1101.07	18.9514
0.152	-1104.74	18.9423
0.15205	-1105.96	18.9484
0.1521	-1101.07	18.9484
0.15215	-1095.58	18.9453
0.1522	-1093.14	18.9514
0.15225	-1091.31	18.9362
0.1523	-1088.87	18.9575
0.15235	-1096.19	18.9453
0.1524	-1098.02	18.9606
0.15245	-1088.87	18.9575
0.1525	-1099.24	18.9484
0.15255	-1090.09	18.9484
0.1526	-1089.48	18.9362
0.15265	-1094.36	18.9484
0.1527	-1104.13	18.9301
0.15275	-1099.24	18.9331
0.1528	-1093.75	18.927
0.15285	-1094.36	18.927
0.1529	-1100.46	18.927
0.15295	-1094.97	18.9301
0.153	-1092.53	18.9575
0.15305	-1098.63	18.9362
0.1531	-1098.02	18.9484
0.15315	-1096.8	18.9484
0.1532	-1091.31	18.9453
0.15325	-1103.52	18.9453
0.1533	-1093.75	18.9392
0.15335	-1099.85	18.9514
0.1534	-1092.53	18.9362
0.15345	-1092.53	18.9636
0.1535	-1099.85	18.9453
0.15355	-1095.58	18.9514
0.1536	-1093.75	18.9484
0.15365	-1102.91	18.9331
0.1537	-1092.53	18.9514
0.15375	-1094.36	18.9392
0.1538	-1095.58	18.9545
0.15385	-1090.7	18.924
0.1539	-1097.41	18.9331
0.15395	-1088.26	18.9331
0.154	-1096.19	18.9392
0.15405	-1102.29	18.9514
0.1541	-1093.75	18.9362
0.15415	-1088.87	18.9362
0.1542	-1086.43	18.9331
0.15425	-1100.46	18.9484
0.1543	-1099.85	18.9514
0.15435	-1099.24	18.9484
0.1544	-1099.85	18.9453
0.15445	-1091.31	18.9362
0.1545	-1091.31	18.9514
0.15455	-1105.35	18.9392
0.1546	-1096.19	18.9453
0.15465	-1104.74	18.927
0.1547	-1083.37	18.9331
0.15475	-1094.36	18.9423
0.1548	-1096.19	18.924
0.15485	-1098.02	18.9453
0.1549	-1094.36	18.927
0.15495	-1093.14	18.9453
0.155	-1102.91	18.927
0.15505	-1093.14	18.9362
0.1551	-1093.14	18.9209
0.15515	-1095.58	18.9209
0.1552	-1107.79	18.9392
0.15525	-1095.58	18.9301
0.1553	-1091.92	18.9453
0.15535	-1094.97	18.9301
0.1554	-1094.97	18.9423
0.15545	-1092.53	18.9453
0.1555	-1104.74	18.9423
0.15555	-1101.07	18.9453
0.1556	-1092.53	18.9331
0.15565	-1101.07	18.9423
0.1557	-1097.41	18.9362
0.15575	-1098.02	18.9484
0.1558	-1088.26	18.9423
0.15585	-1091.92	18.9423
0.1559	-1098.02	18.9484
0.15595	-1089.48	18.9392
0.156	-1094.36	18.9362
0.15605	-1092.53	18.924
0.1561	-1102.29	18.9484
0.15615	-1099.85	18.9331
0.1562	-1090.7	18.927
0.15625	-1091.92	18.9423
0.1563	-1105.35	18.9453
0.15635	-1102.29	18.9484
0.1564	-1091.92	18.9331
0.15645	-1109.01	18.9514
0.1565	-1088.26	18.9423
0.15655	-1101.07	18.9484
0.1566	-1096.8	18.9484
0.15665	-1103.52	18.9545
0.1567	-1101.68	18.9484
0.15675	-1091.92	18.9362
0.1568	-1094.36	18.9453
0.15685	-1105.96	18.9392
0.1569	-1090.09	18.9484
0.15695	-1088.87	18.9331
0.157	-1093.14	18.9331
0.15705	-1096.19	18.9392
0.1571	-1085.82	18.9392
0.15715	-1094.36	18.9545
0.1572	-1089.48	18.9331
0.15725	-1097.41	18.9484
0.1573	-1088.26	18.9331
0.15735	-1088.87	18.9453
0.1574	-1098.63	18.9392
0.15745	-1088.87	18.9301
0.1575	-1087.04	18.9453
0.15755	-1098.63	18.9423
0.1576	-1103.52	18.9575
0.15765	-1097.41	18.9392
0.1577	-1100.46	18.9453
0.15775	-1090.7	18.9484
0.1578	-1090.7	18.9545
0.15785	-1104.13	18.9606
0.1579	-1087.65	18.9362
0.15795	-1095.58	18.9484
0.158	-1087.65	18.9392
0.15805	-1090.7	18.9423
0.1581	-1091.31	18.9423
0.15815	-1096.19	18.9484
0.1582	-1099.24	18.9423
0.15825	-1095.58	18.9301
0.1583	-1101.07	18.9514
0.15835	-1097.41	18.9362
0.1584	-1094.97	18.9484
0.15845	-1105.35	18.927
0.1585	-1093.14	18.9545
0.15855	-1099.24	18.9545
0.1586	-1094.36	18.9514
0.15865	-1095.58	18.9575
0.1587	-1099.24	18.9545
0.15875	-1101.07	18.9697
0.1588	-1096.19	18.9453
0.15885	-1102.91	18.9514
0.1589	-1095.58	18.9453
0.15895	-1096.8	18.9514
0.159	-1093.75	18.9606
0.15905	-1093.14	18.9484
0.1591	-1101.07	18.9636
0.15915	-1087.65	18.9484
0.1592	-1099.24	18.9514
0.15925	-1099.24	18.9453
0.1593	-1108.4	18.9392
0.15935	-1100.46	18.9484
0.1594	-1100.46	18.9362
0.15945	-1101.68	18.9423
0.1595	-1105.35	18.9331
0.15955	-1101.68	18.9575
0.1596	-1101.68	18.9331
0.15965	-1098.63	18.9301
0.1597	-1093.75	18.9423
0.15975	-1093.14	18.9392
0.1598	-1103.52	18.9575
0.15985	-1105.96	18.9301
0.1599	-1098.63	18.9423
0.15995	-1091.31	18.9362
0.16	-1097.41	18.9423
0.16005	-1102.91	18.9423
0.1601	-1093.14	18.9392
0.16015	-1093.14	18.9514
0.1602	-1092.53	18.9423
0.16025	-1098.02	18.9423
0.1603	-1098.02	18.9423
0.16035	-1095.58	18.9575
0.1604	-1100.46	18.9545
0.16045	-1098.63	18.9514
0.1605	-1102.91	18.9423
0.16055	-1093.14	18.9453
0.1606	-1093.75	18.9545
0.16065	-1096.8	18.9331
0.1607	-1095.58	18.9362
0.16075	-1090.7	18.9331
0.1608	-1096.19	18.9423
0.16085	-1088.26	18.9423
0.1609	-1093.75	18.9392
0.16095	-1092.53	18.9392
0.161	-1101.68	18.9331
0.16105	-1087.04	18.9453
0.1611	-1088.87	18.9331
0.16115	-1088.26	18.9514
0.1612	-1087.04	18.9575
0.16125	-1093.14	18.9392
0.1613	-1093.14	18.9423
0.16135	-1088.87	18.9301
0.1614	-1090.7	18.9514
0.16145	-1093.75	18.9453
0.1615	-1087.65	18.9575
0.16155	-1090.09	18.9362
0.1616	-1091.31	18.9301
0.16165	-1085.82	18.9362
0.1617	-1085.82	18.927
0.16175	-1085.82	18.9545
0.1618	-1092.53	18.9362
0.16185	-1089.48	18.9362
0.1619	-1097.41	18.9301
0.16195	-1088.26	18.9392
0.162	-1100.46	18.9392
0.16205	-1094.97	18.927
0.1621	-1098.02	18.9392
0.16215	-1095.58	18.9209
0.1622	-1094.36	18.9362
0.16225	-1094.97	18.9301
0.1623	-1089.48	18.9331
0.16235	-1087.04	18.9362
0.1624	-1088.87	18.927
0.16245	-1088.87	18.9392
0.1625	-1091.31	18.924
0.16255	-1098.63	18.9514
0.1626	-1088.87	18.9362
0.16265	-1092.53	18.9453
0.1627	-1091.31	18.927
0.16275	-1099.85	18.9392
0.1628	-1085.82	18.9423
0.16285	-1091.31	18.9423
0.1629	-1092.53	18.9453
0.16295	-1088.26	18.9301
0.163	-1085.21	18.9392
0.16305	-1080.93	18.9331
0.1631	-1085.82	18.9362
0.16315	-1088.26	18.9362
0.1632	-1098.63	18.9178
0.16325	-1083.37	18.9331
0.1633	-1088.87	18.924
0.16335	-1096.19	18.9423
0.1634	-1082.76	18.927
0.16345	-1083.98	18.927
0.1635	-1087.65	18.9331
0.16355	-1083.98	18.927
0.1636	-1092.53	18.9331
0.16365	-1088.87	18.9178
0.1637	-1094.36	18.9331
0.16375	-1093.14	18.927
0.1638	-1090.7	18.9301
0.16385	-1096.8	18.927
0.1639	-1098.02	18.9148
0.16395	-1091.31	18.924
0.164	-1088.26	18.924
0.16405	-1099.85	18.9331
0.1641	-1088.87	18.9178
0.16415	-1095.58	18.9209
0.1642	-1089.48	18.924
0.16425	-1091.92	18.924
0.1643	-1088.26	18.9301
0.16435	-1087.04	18.924
0.1644	-1094.36	18.9392
0.16445	-1096.8	18.924
0.1645	-1083.98	18.9301
0.16455	-1084.59	18.9331
0.1646	-1088.87	18.9423
0.16465	-1091.92	18.9362
0.1647	-1083.37	18.9301
0.16475	-1085.82	18.9362
0.1648	-1083.98	18.9301
0.16485	-1087.04	18.9423
0.1649	-1093.14	18.927
0.16495	-1093.75	18.9392
0.165	-1097.41	18.9484
0.16505	-1084.59	18.927
0.1651	-1082.15	18.9453
0.16515	-1096.8	18.9362
0.1652	-1096.19	18.9484
0.16525	-1083.98	18.9301
0.1653	-1094.36	18.9514
0.16535	-1101.07	18.9484
0.1654	-1091.31	18.9392
0.16545	-1091.31	18.9484
0.1655	-1090.09	18.9392
0.16555	-1090.09	18.9575
0.1656	-1087.04	18.9362
0.16565	-1094.36	18.9484
0.1657	-1092.53	18.9514
0.16575	-1097.41	18.9453
0.1658	-1093.75	18.9362
0.16585	-1087.65	18.9331
0.1659	-1098.63	18.9484
0.16595	-1093.14	18.9362
0.166	-1094.36	18.9423
0.16605	-1091.31	18.9423
0.1661	-1098.63	18.9423
0.16615	-1094.36	18.9514
0.1662	-1084.59	18.9423
0.16625	-1090.7	18.9484
0.1663	-1096.8	18.9453
0.16635	-1098.02	18.9575
0.1664	-1098.63	18.9453
0.16645	-1093.75	18.9514
0.1665	-1099.24	18.9606
0.16655	-1096.19	18.9514
0.1666	-1094.97	18.9575
0.16665	-1097.41	18.9331
0.1667	-1091.92	18.9484
0.16675	-1093.75	18.924
0.1668	-1088.87	18.9423
0.16685	-1094.36	18.927
0.1669	-1091.31	18.9362
0.16695	-1097.41	18.927
0.167	-1094.97	18.924
0.16705	-1091.31	18.9453
0.1671	-1090.7	18.9301
0.16715	-1095.58	18.9453
0.1672	-1087.65	18.927
0.16725	-1089.48	18.9423
0.1673	-1092.53	18.9453
0.16735	-1091.92	18.9301
0.1674	-1089.48	18.9392
0.16745	-1092.53	18.927
0.1675	-1096.19	18.9392
0.16755	-1091.92	18.9362
0.1676	-1091.31	18.9423
0.16765	-1102.29	18.9423
0.1677	-1096.8	18.9423
0.16775	-1090.09	18.9453
0.1678	-1099.24	18.927
0.16785	-1095.58	18.9423
0.1679	-1097.41	18.9331
0.16795	-1089.48	18.9453
0.168	-1094.36	18.9423
0.16805	-1096.8	18.9331
0.1681	-1093.75	18.9484
0.16815	-1096.8	18.9301
0.1682	-1091.31	18.9545
0.16825	-1094.97	18.9453
0.1683	-1091.92	18.9484
0.16835	-1091.92	18.9362
0.1684	-1087.04	18.9392
0.16845	-1092.53	18.9453
0.1685	-1096.8	18.9331
0.16855	-1093.14	18.9453
0.1686	-1094.97	18.9392
0.16865	-1090.7	18.9606
0.1687	-1104.74	18.9514
0.16875	-1099.24	18.9484
0.1688	-1091.92	18.9453
0.16885	-1093.75	18.9331
0.1689	-1088.26	18.9423
0.16895	-1084.59	18.9392
0.169	-1086.43	18.9514
0.16905	-1091.31	18.9362
0.1691	-1089.48	18.9606
0.16915	-1096.8	18.9484
0.1692	-1091.31	18.9514
0.16925	-1099.85	18.9484
0.1693	-1090.09	18.9392
0.16935	-1091.31	18.9606
0.1694	-1096.19	18.9362
0.16945	-1083.37	18.9453
0.1695	-1087.04	18.9423
0.16955	-1083.37	18.9423
0.1696	-1086.43	18.9331
0.16965	-1088.26	18.9362
0.1697	-1088.87	18.9423
0.16975	-1089.48	18.924
0.1698	-1081.54	18.9453
0.16985	-1085.82	18.9423
0.1699	-1084.59	18.9362
0.16995	-1090.7	18.9209
0.17	-1083.98	18.9301
0.17005	-1082.76	18.9362
0.1701	-1088.26	18.9301
0.17015	-1091.92	18.9453
0.1702	-1084.59	18.9423
0.17025	-1085.82	18.9484
0.1703	-1093.14	18.9423
0.17035	-1094.36	18.9362
0.1704	-1087.04	18.9545
0.17045	-1096.19	18.9392
0.1705	-1093.75	18.9392
0.17055	-1099.85	18.924
0.1706	-1091.31	18.9423
0.17065	-1101.07	18.927
0.1707	-1095.58	18.9392
0.17075	-1088.87	18.9484
0.1708	-1089.48	18.9331
0.17085	-1093.14	18.9484
0.1709	-1090.09	18.9301
0.17095	-1094.36	18.9362
0.171	-1095.58	18.9453
0.17105	-1085.82	18.9453
0.1711	-1085.21	18.9362
0.17115	-1091.92	18.9362
0.1712	-1088.87	18.9545
0.17125	-1084.59	18.9331
0.1713	-1102.91	18.9392
0.17135	-1088.26	18.9301
0.1714	-1096.8	18.9453
0.17145	-1096.8	18.9331
0.1715	-1087.65	18.9453
0.17155	-1085.82	18.9453
0.1716	-1094.36	18.9301
0.17165	-1088.26	18.9453
0.1717	-1086.43	18.9331
0.17175	-1091.31	18.9453
0.1718	-1087.04	18.9331
0.17185	-1088.87	18.9423
0.1719	-1082.76	18.9423
0.17195	-1095.58	18.9392
0.172	-1090.09	18.9453
0.17205	-1083.98	18.9331
0.1721	-1090.09	18.9484
0.17215	-1089.48	18.9484
0.1722	-1094.97	18.9331
0.17225	-1091.31	18.9301
0.1723	-1093.75	18.9209
0.17235	-1088.26	18.9362
0.1724	-1089.48	18.9301
0.17245	-1079.1	18.9453
0.1725	-1087.65	18.927
0.17255	-1096.19	18.9484
0.1726	-1088.87	18.9362
0.17265	-1090.09	18.9453
0.1727	-1090.7	18.9545
0.17275	-1095.58	18.9484
0.1728	-1087.04	18.9545
0.17285	-1077.27	18.9362
0.1729	-1088.26	18.9484
0.17295	-1086.43	18.9423
0.173	-1089.48	18.9453
0.17305	-1090.09	18.9453
0.1731	-1087.65	18.9392
0.17315	-1093.75	18.9575
0.1732	-1085.21	18.9331
0.17325	-1086.43	18.9484
0.1733	-1087.04	18.9423
0.17335	-1093.75	18.9423
0.1734	-1091.92	18.9362
0.17345	-1085.82	18.9423
0.1735	-1102.29	18.9545
0.17355	-1091.31	18.9331
0.1736	-1084.59	18.9362
0.17365	-1087.65	18.9331
0.1737	-1092.53	18.9453
0.17375	-1089.48	18.9362
0.1738	-1090.09	18.9301
0.17385	-1096.8	18.9545
0.1739	-1084.59	18.9392
0.17395	-1088.26	18.9453
0.174	-1090.09	18.9301
0.17405	-1080.93	18.9453
0.1741	-1079.71	18.9423
0.17415	-1082.76	18.9301
0.1742	-1087.04	18.9484
0.17425	-1088.26	18.9423
0.1743	-1091.31	18.9453
0.17435	-1082.15	18.9301
0.1744	-1085.21	18.9423
0.17445	-1085.82	18.9362
0.1745	-1082.76	18.9453
0.17455	-1090.09	18.9423
0.1746	-1082.76	18.9331
0.17465	-1086.43	18.9484
0.1747	-1075.44	18.9392
0.17475	-1082.15	18.9514
0.1748	-1090.7	18.9423
0.17485	-1083.37	18.9392
0.1749	-1086.43	18.9362
0.17495	-1090.09	18.9362
0.175	-1090.09	18.9453
0.17505	-1085.21	18.9301
0.1751	-1091.92	18.9514
0.17515	-1084.59	18.9423
0.1752	-1088.26	18.9484
0.17525	-1091.92	18.9545
0.1753	-1101.68	18.9514
0.17535	-1090.09	18.9667
0.1754	-1094.97	18.9423
0.17545	-1097.41	18.9575
0.1755	-1091.92	18.9423
0.17555	-1098.63	18.9423
0.1756	-1077.27	18.9301
0.17565	-1088.26	18.9392
0.1757	-1083.37	18.9453
0.17575	-1085.21	18.9362
0.1758	-1086.43	18.9484
0.17585	-1087.65	18.9301
0.1759	-1089.48	18.9392
0.17595	-1079.71	18.9301
0.176	-1093.14	18.9392
0.17605	-1090.7	18.9453
0.1761	-1087.65	18.9392
0.17615	-1085.21	18.9453
0.1762	-1083.98	18.9392
0.17625	-1082.15	18.9423
0.1763	-1082.76	18.9301
0.17635	-1077.27	18.9423
0.1764	-1087.04	18.9392
0.17645	-1080.93	18.9392
0.1765	-1085.82	18.9484
0.17655	-1079.1	18.9362
0.1766	-1093.14	18.9453
0.17665	-1088.26	18.9301
0.1767	-1080.32	18.9423
0.17675	-1087.65	18.9423
0.1768	-1079.1	18.927
0.17685	-1093.14	18.9453
0.1769	-1083.98	18.9331
0.17695	-1088.26	18.9392
0.177	-1079.1	18.9362
0.17705	-1083.98	18.9453
0.1771	-1079.71	18.9301
0.17715	-1087.04	18.9362
0.1772	-1086.43	18.9453
0.17725	-1074.22	18.9392
0.1773	-1084.59	18.9423
0.17735	-1085.82	18.924
0.1774	-1075.44	18.9484
0.17745	-1089.48	18.9423
0.1775	-1073	18.9484
0.17755	-1081.54	18.9453
0.1776	-1082.76	18.9453
0.17765	-1088.26	18.9423
0.1777	-1087.65	18.9453
0.17775	-1086.43	18.9545
0.1778	-1080.32	18.9331
0.17785	-1090.7	18.9301
0.1779	-1088.87	18.9301
0.17795	-1081.54	18.9209
0.178	-1091.31	18.927
0.17805	-1087.04	18.927
0.1781	-1090.7	18.9392
0.17815	-1091.31	18.9362
0.1782	-1096.8	18.9362
0.17825	-1096.8	18.924
0.1783	-1092.53	18.924
0.17835	-1092.53	18.927
0.1784	-1090.09	18.927
0.17845	-1083.98	18.9514
0.1785	-1094.36	18.924
0.17855	-1086.43	18.9331
0.1786	-1089.48	18.9331
0.17865	-1086.43	18.9362
0.1787	-1091.92	18.9392
0.17875	-1083.98	18.9362
0.1788	-1089.48	18.9453
0.17885	-1092.53	18.924
0.1789	-1087.04	18.9362
0.17895	-1095.58	18.9331
0.179	-1087.04	18.9453
0.17905	-1093.14	18.9362
0.1791	-1094.36	18.9331
0.17915	-1083.98	18.9301
0.1792	-1087.04	18.927
0.17925	-1098.02	18.9453
0.1793	-1094.97	18.9331
0.17935	-1082.15	18.9362
0.1794	-1093.14	18.924
0.17945	-1091.31	18.9362
0.1795	-1096.8	18.9423
0.17955	-1089.48	18.9392
0.1796	-1093.75	18.9545
0.17965	-1090.7	18.9392
0.1797	-1088.87	18.9392
0.17975	-1082.15	18.9301
0.1798	-1091.92	18.9484
0.17985	-1082.15	18.9301
0.1799	-1094.97	18.9209
0.17995	-1085.21	18.9331
0.18	-1090.09	18.9148
0.18005	-1087.04	18.924
0.1801	-1087.65	18.9178
0.18015	-1089.48	18.9331
0.1802	-1084.59	18.9301
0.18025	-1087.04	18.9331
0.1803	-1083.98	18.9301
0.18035	-1074.83	18.927
0.1804	-1081.54	18.9362
0.18045	-1079.1	18.924
0.1805	-1078.49	18.9362
0.18055	-1086.43	18.924
0.1806	-1080.93	18.924
0.18065	-1079.1	18.9362
0.1807	-1083.37	18.927
0.18075	-1084.59	18.927
0.1808	-1081.54	18.924
0.18085	-1086.43	18.9423
0.1809	-1079.71	18.9362
0.18095	-1085.21	18.9392
0.181	-1088.26	18.9453
0.18105	-1085.82	18.9392
0.1811	-1085.82	18.9484
0.18115	-1095.58	18.9331
0.1812	-1087.04	18.9392
0.18125	-1091.31	18.9331
0.1813	-1088.87	18.9301
0.18135	-1085.82	18.924
0.1814	-1087.65	18.9301
0.18145	-1081.54	18.9362
0.1815	-1093.14	18.9453
0.18155	-1082.15	18.9545
0.1816	-1076.66	18.9392
0.18165	-1089.48	18.9545
0.1817	-1093.14	18.9423
0.18175	-1087.65	18.9484
0.1818	-1083.37	18.9484
0.18185	-1082.15	18.9362
0.1819	-1092.53	18.9545
0.18195	-1088.26	18.9392
0.182	-1088.26	18.9484
0.18205	-1091.92	18.9514
0.1821	-1091.31	18.9453
0.18215	-1083.37	18.9392
0.1822	-1092.53	18.9331
0.18225	-1097.41	18.9484
0.1823	-1093.75	18.924
0.18235	-1094.97	18.9514
0.1824	-1102.29	18.9484
0.18245	-1105.96	18.9423
0.1825	-1097.41	18.9392
0.18255	-1092.53	18.9362
0.1826	-1107.18	18.9423
0.18265	-1098.02	18.9392
0.1827	-1091.31	18.9453
0.18275	-1092.53	18.9453
0.1828	-1101.68	18.9514
0.18285	-1092.53	18.9484
0.1829	-1094.36	18.9423
0.18295	-1093.75	18.9484
0.183	-1096.8	18.9301
0.18305	-1090.7	18.9362
0.1831	-1103.52	18.9331
0.18315	-1096.19	18.9545
0.1832	-1090.09	18.9484
0.18325	-1098.02	18.9514
0.1833	-1090.7	18.9545
0.18335	-1090.7	18.9484
0.1834	-1097.41	18.9514
0.18345	-1087.04	18.9514
0.1835	-1098.02	18.9575
0.18355	-1091.31	18.9514
0.1836	-1096.19	18.9453
0.18365	-1098.02	18.9453
0.1837	-1088.87	18.9362
0.18375	-1090.7	18.9423
0.1838	-1098.02	18.9362
0.18385	-1093.75	18.9545
0.1839	-1103.52	18.9484
0.18395	-1094.36	18.9636
0.184	-1094.36	18.9484
0.18405	-1093.14	18.9423
0.1841	-1100.46	18.9392
0.18415	-1097.41	18.9331
0.1842	-1104.13	18.9484
0.18425	-1100.46	18.9362
0.1843	-1100.46	18.9484
0.18435	-1091.92	18.9362
0.1844	-1101.07	18.9484
0.18445	-1093.14	18.9545
0.1845	-1098.02	18.9453
0.18455	-1104.13	18.9514
0.1846	-1094.36	18.9453
0.18465	-1089.48	18.9575
0.1847	-1090.7	18.9392
0.18475	-1096.19	18.9423
0.1848	-1094.36	18.9484
0.18485	-1099.85	18.9392
0.1849	-1094.97	18.9453
0.18495	-1101.07	18.9331
0.185	-1097.41	18.9514
0.18505	-1091.92	18.9331
0.1851	-1094.36	18.9484
0.18515	-1099.85	18.9423
0.1852	-1092.53	18.9301
0.18525	-1079.1	18.9331
0.1853	-1095.58	18.9392
0.18535	-1097.41	18.9453
0.1854	-1088.26	18.9362
0.18545	-1086.43	18.9484
0.1855	-1091.92	18.9453
0.18555	-1092.53	18.9453
0.1856	-1091.31	18.9423
0.18565	-1093.14	18.9392
0.1857	-1082.76	18.9606
0.18575	-1091.31	18.9392
0.1858	-1087.04	18.9514
0.18585	-1098.63	18.9484
0.1859	-1099.24	18.9484
0.18595	-1074.83	18.9453
0.186	-1085.82	18.9453
0.18605	-1089.48	18.9545
0.1861	-1093.14	18.9362
0.18615	-1090.09	18.9484
0.1862	-1088.87	18.9392
0.18625	-1093.75	18.9392
0.1863	-1093.14	18.9423
0.18635	-1083.98	18.9362
0.1864	-1088.26	18.9423
0.18645	-1082.76	18.9362
0.1865	-1077.88	18.9484
0.18655	-1087.65	18.9423
0.1866	-1091.92	18.9362
0.18665	-1083.37	18.9362
0.1867	-1077.88	18.9392
0.18675	-1083.98	18.9423
0.1868	-1080.93	18.9362
0.18685	-1086.43	18.9514
0.1869	-1085.21	18.9453
0.18695	-1088.26	18.9453
0.187	-1083.98	18.9331
0.18705	-1086.43	18.9392
0.1871	-1090.09	18.9453
0.18715	-1086.43	18.9331
0.1872	-1083.98	18.9453
0.18725	-1093.75	18.9178
0.1873	-1083.37	18.9301
0.18735	-1091.31	18.927
0.1874	-1090.7	18.9392
0.18745	-1090.09	18.9392
0.1875	-1083.98	18.927
0.18755	-1091.31	18.9331
0.1876	-1092.53	18.9209
0.18765	-1088.26	18.9484
0.1877	-1095.58	18.9362
0.18775	-1083.98	18.9423
0.1878	-1084.59	18.924
0.18785	-1086.43	18.927
0.1879	-1086.43	18.9484
0.18795	-1090.7	18.9362
0.188	-1088.26	18.9484
0.18805	-1082.76	18.9301
0.1881	-1093.14	18.9362
0.18815	-1095.58	18.9362
0.1882	-1086.43	18.9453
0.18825	-1090.7	18.9545
0.1883	-1076.05	18.9392
0.18835	-1087.04	18.9423
0.1884	-1091.92	18.9453
0.18845	-1094.36	18.9545
0.1885	-1088.26	18.9301
0.18855	-1091.31	18.9484
0.1886	-1087.04	18.9514
0.18865	-1088.87	18.9392
0.1887	-1095.58	18.9484
0.18875	-1085.82	18.9362
0.1888	-1090.7	18.9392
0.18885	-1090.09	18.9423
0.1889	-1089.48	18.9514
0.18895	-1081.54	18.9392
0.189	-1089.48	18.9392
0.18905	-1089.48	18.9575
0.1891	-1079.71	18.9362
0.18915	-1080.32	18.9545
0.1892	-1094.36	18.9301
0.18925	-1083.98	18.9423
0.1893	-1090.7	18.9423
0.18935	-1085.21	18.9392
0.1894	-1085.82	18.9392
0.18945	-1091.31	18.9331
0.1895	-1079.1	18.9423
0.18955	-1090.09	18.9331
0.1896	-1087.04	18.9453
0.18965	-1085.82	18.9453
0.1897	-1087.04	18.9392
0.18975	-1094.36	18.9392
0.1898	-1094.36	18.9301
0.18985	-1095.58	18.9453
0.1899	-1084.59	18.9362
0.18995	-1090.09	18.9392
0.19	-1090.7	18.9331
0.19005	-1093.75	18.9514
0.1901	-1088.26	18.9484
0.19015	-1090.09	18.9453
0.1902	-1091.92	18.9484
0.19025	-1095.58	18.9423
0.1903	-1089.48	18.9575
0.19035	-1093.75	18.9331
0.1904	-1093.14	18.9453
0.19045	-1094.36	18.9484
0.1905	-1090.09	18.9484
0.19055	-1090.09	18.9606
0.1906	-1086.43	18.9484
0.19065	-1086.43	18.9545
0.1907	-1090.09	18.9392
0.19075	-1082.76	18.9636
0.1908	-1090.7	18.9453
0.19085	-1082.15	18.9392
0.1909	-1088.26	18.9362
0.19095	-1085.82	18.9423
0.191	-1087.65	18.9423
0.19105	-1084.59	18.9148
0.1911	-1083.37	18.927
0.19115	-1085.21	18.9392
0.1912	-1075.44	18.9331
0.19125	-1082.76	18.9331
0.1913	-1082.15	18.9301
0.19135	-1074.83	18.9392
0.1914	-1088.87	18.927
0.19145	-1087.65	18.9392
0.1915	-1084.59	18.927
0.19155	-1091.31	18.9423
0.1916	-1091.31	18.9392
0.19165	-1086.43	18.9423
0.1917	-1094.36	18.9392
0.19175	-1101.07	18.9301
0.1918	-1083.37	18.9301
0.19185	-1090.7	18.924
0.1919	-1086.43	18.9362
0.19195	-1098.02	18.9362
0.192	-1098.63	18.9423
0.19205	-1100.46	18.9392
0.1921	-1091.92	18.9362
0.19215	-1094.36	18.9545
0.1922	-1096.8	18.9453
0.19225	-1093.14	18.9514
0.1923	-1093.14	18.9484
0.19235	-1101.07	18.9453
0.1924	-1093.14	18.9423
0.19245	-1101.68	18.9392
0.1925	-1083.98	18.9484
0.19255	-1092.53	18.9423
0.1926	-1091.92	18.9484
0.19265	-1094.36	18.9392
0.1927	-1091.31	18.9453
0.19275	-1095.58	18.9423
0.1928	-1090.7	18.9453
0.19285	-1096.19	18.9514
0.1929	-1099.24	18.9423
0.19295	-1094.97	18.9575
0.193	-1094.97	18.9423
0.19305	-1099.24	18.9453
0.1931	-1085.82	18.9392
0.19315	-1092.53	18.9362
0.1932	-1093.14	18.9392
0.19325	-1088.26	18.9301
0.1933	-1091.92	18.9514
0.19335	-1093.75	18.9453
0.1934	-1092.53	18.9606
0.19345	-1096.19	18.9514
0.1935	-1088.26	18.9514
0.19355	-1088.87	18.9636
0.1936	-1091.31	18.9453
0.19365	-1098.02	18.9545
0.1937	-1099.24	18.9392
0.19375	-1093.75	18.9636
0.1938	-1105.35	18.9484
0.19385	-1095.58	18.9484
0.1939	-1091.92	18.9514
0.19395	-1099.24	18.9484
0.194	-1105.35	18.9514
0.19405	-1091.31	18.9301
0.1941	-1098.63	18.9484
0.19415	-1098.02	18.9301
0.1942	-1096.8	18.9453
0.19425	-1098.02	18.9392
0.1943	-1088.26	18.9301
0.19435	-1094.97	18.9331
0.1944	-1094.36	18.9301
0.19445	-1100.46	18.9392
0.1945	-1085.82	18.9301
0.19455	-1084.59	18.9453
0.1946	-1096.8	18.9453
0.19465	-1087.04	18.9392
0.1947	-1088.87	18.9453
0.19475	-1087.04	18.9392
0.1948	-1097.41	18.9545
0.19485	-1091.92	18.9301
0.1949	-1096.8	18.9453
0.19495	-1096.8	18.924
0.195	-1098.02	18.9362
0.19505	-1099.85	18.9392
0.1951	-1096.19	18.9392
0.19515	-1099.85	18.9545
0.1952	-1101.07	18.9331
0.19525	-1098.02	18.9453
0.1953	-1092.53	18.9362
0.19535	-1093.14	18.9484
0.1954	-1089.48	18.9362
0.19545	-1092.53	18.9423
0.1955	-1092.53	18.9514
0.19555	-1085.21	18.9392
0.1956	-1086.43	18.9484
0.19565	-1088.26	18.9331
0.1957	-1094.97	18.9423
0.19575	-1085.82	18.9453
0.1958	-1081.54	18.9514
0.19585	-1088.26	18.9331
0.1959	-1082.15	18.924
0.19595	-1083.37	18.9392
0.196	-1087.65	18.9362
0.19605	-1088.26	18.9514
0.1961	-1081.54	18.9209
0.19615	-1077.27	18.924
0.1962	-1085.82	18.927
0.19625	-1083.37	18.924
0.1963	-1082.76	18.9362
0.19635	-1088.87	18.9117
0.1964	-1080.93	18.927
0.19645	-1087.65	18.9178
0.1965	-1086.43	18.9392
0.19655	-1096.8	18.927
0.1966	-1085.82	18.927
0.19665	-1078.49	18.9331
0.1967	-1083.98	18.9301
0.19675	-1083.37	18.9392
0.1968	-1085.82	18.9178
0.19685	-1070.56	18.924
0.1969	-1082.15	18.9209
0.19695	-1088.26	18.927
0.197	-1077.27	18.9362
0.19705	-1083.98	18.927
0.1971	-1080.32	18.9301
0.19715	-1083.98	18.924
0.1972	-1088.26	18.9331
0.19725	-1084.59	18.9178
0.1973	-1083.37	18.924
0.19735	-1084.59	18.9301
0.1974	-1086.43	18.9331
0.19745	-1079.1	18.9453
0.1975	-1082.76	18.9301
0.19755	-1090.09	18.9392
0.1976	-1077.27	18.9209
0.19765	-1082.76	18.927
0.1977	-1080.32	18.924
0.19775	-1089.48	18.924
0.1978	-1086.43	18.9392
0.19785	-1086.43	18.9331
0.1979	-1088.26	18.9453
0.19795	-1080.93	18.927
0.198	-1087.65	18.9453
0.19805	-1075.44	18.924
0.1981	-1088.26	18.9362
0.19815	-1080.32	18.9362
0.1982	-1081.54	18.9362
0.19825	-1076.66	18.9392
0.1983	-1074.83	18.924
0.19835	-1082.15	18.9423
0.1984	-1081.54	18.9362
0.19845	-1079.1	18.927
0.1985	-1085.82	18.927
0.19855	-1078.49	18.924
0.1986	-1081.54	18.9362
0.19865	-1082.76	18.924
0.1987	-1085.82	18.9484
0.19875	-1085.82	18.9392
0.1988	-1082.76	18.9362
0.19885	-1083.37	18.9392
0.1989	-1088.87	18.9453
0.19895	-1095.58	18.9514
0.199	-1084.59	18.9362
0.19905	-1090.7	18.9545
0.1991	-1090.09	18.9362
0.19915	-1085.82	18.9392
0.1992	-1089.48	18.9392
0.19925	-1087.65	18.9514
0.1993	-1087.65	18.9484
0.19935	-1087.04	18.9301
0.1994	-1085.82	18.9484
0.19945	-1094.36	18.9453
0.1995	-1091.31	18.9575
0.19955	-1083.37	18.9545
0.1996	-1090.7	18.9514
0.19965	-1091.31	18.9392
0.1997	-1090.09	18.9423
0.19975	-1095.58	18.9453
0.1998	-1099.24	18.9331
0.19985	-1088.26	18.9484
0.1999	-1095.58	18.9362
0.19995	-1088.26	18.9392
0.2	-1093.14	18.9392
0.20005	-1096.19	18.9392
0.2001	-1093.14	18.9484
0.20015	-1092.53	18.9362
0.2002	-1086.43	18.9423
0.20025	-1091.92	18.927
0.2003	-1092.53	18.9331
0.20035	-1090.09	18.924
0.2004	-1091.31	18.924
0.20045	-1094.97	18.927
0.2005	-1096.8	18.9026
0.20055	-1094.97	18.9209
0.2006	-1093.75	18.9026
0.20065	-1093.14	18.9087
0.2007	-1087.04	18.8934
0.20075	-1089.48	18.8934
0.2008	-1087.04	18.8843
0.20085	-1088.26	18.8782
0.2009	-1090.09	18.8843
0.20095	-1083.37	18.8751
0.201	-1083.98	18.8782
0.20105	-1091.92	18.866
0.2011	-1084.59	18.869
0.20115	-1089.48	18.8568
0.2012	-1090.7	18.8507
0.20125	-1088.26	18.8568
0.2013	-1094.97	18.8354
0.20135	-1085.21	18.8354
0.2014	-1084.59	18.8141
0.20145	-1090.09	18.8202
0.2015	-1086.43	18.8049
0.20155	-1091.31	18.7927
0.2016	-1091.92	18.7866
0.20165	-1098.63	18.7683
0.2017	-1091.31	18.7744
0.20175	-1082.15	18.75
0.2018	-1094.36	18.7531
0.20185	-1093.14	18.7317
0.2019	-1088.26	18.7225
0.20195	-1089.48	18.7164
0.202	-1086.43	18.692
0.20205	-1091.31	18.6859
0.2021	-1085.82	18.6676
0.20215	-1084.59	18.6768
0.2022	-1086.43	18.6615
0.20225	-1083.98	18.6493
0.2023	-1085.82	18.6371
0.20235	-1085.82	18.6096
0.2024	-1091.92	18.6035
0.20245	-1080.32	18.5699
0.2025	-1085.82	18.573
0.20255	-1091.31	18.5394
0.2026	-1088.26	18.5364
0.20265	-1088.26	18.5089
0.2027	-1090.7	18.4875
0.20275	-1093.14	18.4814
0.2028	-1085.82	18.457
0.20285	-1086.43	18.454
0.2029	-1079.71	18.4143
0.20295	-1081.54	18.3929
0.203	-1077.27	18.3746
0.20305	-1078.49	18.3472
0.2031	-1085.82	18.335
0.20315	-1081.54	18.3105
0.2032	-1077.88	18.2953
0.20325	-1076.05	18.2648
0.2033	-1083.37	18.2434
0.20335	-1079.1	18.2037
0.2034	-1078.49	18.1793
0.20345	-1083.37	18.158
0.2035	-1083.98	18.1305
0.20355	-1085.21	18.1274
0.2036	-1080.93	18.0817
0.20365	-1080.32	18.0573
0.2037	-1074.83	18.0389
0.20375	-1082.15	18.0176
0.2038	-1088.26	17.9901
0.20385	-1079.71	17.9565
0.2039	-1085.82	17.9382
0.20395	-1079.71	17.8925
0.204	-1083.98	17.8802
0.20405	-1075.44	17.8436
0.2041	-1089.48	17.8253
0.20415	-1089.48	17.7795
0.2042	-1083.37	17.749
0.20425	-1081.54	17.7155
0.2043	-1083.98	17.6849
0.20435	-1083.37	17.6727
0.2044	-1085.82	17.6239
0.20445	-1075.44	17.5903
0.2045	-1081.54	17.5446
0.20455	-1088.26	17.5171
0.2046	-1088.26	17.5018
0.20465	-1089.48	17.4469
0.2047	-1087.65	17.4286
0.20475	-1082.76	17.3798
0.2048	-1082.76	17.3553
0.20485	-1085.82	17.3218
0.2049	-1082.15	17.3004
0.20495	-1079.1	17.2516
0.205	-1079.71	17.2028
0.20505	-1087.04	17.1814
0.2051	-1082.76	17.1326
0.20515	-1087.04	17.1234
0.2052	-1074.22	17.0593
0.20525	-1072.39	17.0319
0.2053	-1088.87	16.9891
0.20535	-1083.98	16.9434
0.2054	-1081.54	16.9128
0.20545	-1082.15	16.8701
0.2055	-1081.54	16.8427
0.20555	-1089.48	16.7816
0.2056	-1087.04	16.7511
0.20565	-1082.76	16.7145
0.2057	-1082.15	16.6748
0.20575	-1089.48	16.6412
0.2058	-1094.97	16.5924
0.20585	-1091.31	16.5558
0.2059	-1091.31	16.4978
0.20595	-1086.43	16.4734
0.206	-1093.14	16.4215
0.20605	-1093.14	16.3818
0.2061	-1079.71	16.3452
0.20615	-1086.43	16.3025
0.2062	-1082.76	16.2567
0.20625	-1082.76	16.2048
0.2063	-1087.65	16.1804
0.20635	-1085.82	16.1285
0.2064	-1090.7	16.0889
0.20645	-1085.21	16.037
0.2065	-1085.21	15.9943
0.20655	-1085.21	15.9698
0.2066	-1089.48	15.9027
0.20665	-1088.87	15.8783
0.2067	-1082.76	15.8234
0.20675	-1081.54	15.7959
0.2068	-1090.09	15.7379
0.20685	-1088.87	15.6921
0.2069	-1098.02	15.6555
0.20695	-1085.82	15.5945
0.207	-1083.98	15.5487
0.20705	-1087.65	15.4968
0.2071	-1091.31	15.4694
0.20715	-1099.85	15.4205
0.2072	-1090.7	15.3625
0.20725	-1098.63	15.329
0.2073	-1094.36	15.274
0.20735	-1096.8	15.2222
0.2074	-1092.53	15.1672
0.20745	-1093.75	15.1367
0.2075	-1089.48	15.0726
0.20755	-1083.98	15.0208
0.2076	-1091.92	14.978
0.20765	-1088.87	14.9384
0.2077	-1088.26	14.8865
0.20775	-1090.7	14.8193
0.2078	-1091.92	14.7888
0.20785	-1091.31	14.7247
0.2079	-1090.7	14.6912
0.20795	-1088.87	14.6484
0.208	-1077.88	14.5874
0.20805	-1080.93	14.5355
0.2081	-1079.1	14.4806
0.20815	-1083.37	14.4501
0.2082	-1084.59	14.3799
0.20825	-1089.48	14.3463
0.2083	-1088.26	14.2914
0.20835	-1086.43	14.2456
0.2084	-1085.21	14.1968
0.20845	-1083.37	14.1418
0.2085	-1090.7	14.1052
0.20855	-1089.48	14.0381
0.2086	-1083.37	14.0015
0.20865	-1087.04	13.9282
0.2087	-1089.48	13.8916
0.20875	-1082.15	13.8336
0.2088	-1099.85	13.7726
0.20885	-1077.88	13.736
0.2089	-1086.43	13.678
0.20895	-1090.09	13.6475
0.209	-1088.87	13.5834
0.20905	-1085.21	13.5406
0.2091	-1092.53	13.4888
0.20915	-1092.53	13.4247
0.2092	-1092.53	13.3728
0.20925	-1093.75	13.3118
0.2093	-1091.31	13.2629
0.20935	-1091.31	13.2111
0.2094	-1090.7	13.1592
0.20945	-1098.63	13.0951
0.2095	-1089.48	13.0463
0.20955	-1093.14	12.9974
0.2096	-1089.48	12.9333
0.20965	-1094.36	12.8937
0.2097	-1090.09	12.8265
0.20975	-1093.75	12.7808
0.2098	-1084.59	12.7167
0.20985	-1090.09	12.6617
0.2099	-1088.87	12.6129
0.20995	-1087.65	12.561
0.21	-1094.36	12.5122
0.21005	-1092.53	12.4481
0.2101	-1091.92	12.4054
0.21015	-1102.91	12.3322
0.2102	-1082.76	12.2925
0.21025	-1093.14	12.2314
0.2103	-1092.53	12.1674
0.21035	-1089.48	12.1216
0.2104	-1082.76	12.0544
0.21045	-1090.7	12.0148
0.2105	-1093.75	11.9476
0.21055	-1093.14	11.9049
0.2106	-1094.97	11.8439
0.21065	-1091.31	11.7889
0.2107	-1088.26	11.7401
0.21075	-1088.87	11.673
0.2108	-1098.02	11.6394
0.21085	-1084.59	11.557
0.2109	-1088.87	11.5234
0.21095	-1087.65	11.4471
0.211	-1091.92	11.3953
0.21105	-1086.43	11.3403
0.2111	-1093.14	11.2823
0.21115	-1083.98	11.2274
0.2112	-1089.48	11.1694
0.21125	-1090.09	11.1359
0.2113	-1088.87	11.0626
0.21135	-1085.21	11.0046
0.2114	-1094.36	10.9406
0.21145	-1090.7	10.9009
0.2115	-1097.41	10.8429
0.21155	-1094.97	10.7788
0.2116	-1093.14	10.7544
0.21165	-1099.85	10.6812
0.2117	-1087.04	10.6232
0.21175	-1085.82	10.556
0.2118	-1088.87	10.498
0.21185	-1093.14	10.4462
0.2119	-1088.87	10.3882
0.21195	-1096.8	10.3455
0.212	-1087.65	10.2661
0.21205	-1094.97	10.2081
0.2121	-1090.7	10.1532
0.21215	-1090.7	10.0922
0.2122	-1095.58	10.0464
0.21225	-1087.65	9.9762
0.2123	-1096.19	9.93042
0.21235	-1092.53	9.85413
0.2124	-1091.92	9.8175
0.21245	-1096.19	9.75952
0.2125	-1089.48	9.70459
0.21255	-1087.65	9.6344
0.2126	-1087.04	9.57947
0.21265	-1093.14	9.53369
0.2127	-1091.92	9.46045
0.21275	-1093.75	9.42383
0.2128	-1087.04	9.34448
0.21285	-1086.43	9.2926
0.2129	-1091.31	9.23157
0.21295	-1091.92	9.18579
0.213	-1094.36	9.13696
0.21305	-1091.92	9.06982
0.2131	-1086.43	9.01794
0.21315	-1085.82	8.95081
0.2132	-1100.46	8.90198
0.21325	-1086.43	8.83789
0.2133	-1088.87	8.78296
0.21335	-1096.19	8.71887
0.2134	-1100.46	8.66394
0.21345	-1094.36	8.61206
0.2135	-1097.41	8.54187
0.21355	-1091.31	8.49304
0.2136	-1091.92	8.42896
0.21365	-1094.36	8.36792
0.2137	-1093.75	8.30994
0.21375	-1093.14	8.24585
0.2138	-1090.09	8.20313
0.21385	-1085.82	8.13599
0.2139	-1083.37	8.09631
0.21395	-1088.26	8.02612
0.214	-1079.1	7.98035
0.21405	-1085.82	7.91931
0.2141	-1083.98	7.86438
0.21415	-1086.43	7.80334
0.2142	-1083.37	7.72705
0.21425	-1088.26	7.68738
0.2143	-1086.43	7.61414
0.21435	-1082.15	7.56531
0.2144	-1080.93	7.50732
0.21445	-1083.98	7.44934
0.2145	-1090.7	7.40051
0.21455	-1093.14	7.32727
0.2146	-1086.43	7.27844
0.21465	-1084.59	7.22351
0.2147	-1094.97	7.17468
0.21475	-1087.65	7.10754
0.2148	-1084.59	7.05261
0.21485	-1089.48	7.01294
0.2149	-1086.43	6.94275
0.21495	-1085.82	6.88477
0.215	-1088.87	6.81458
0.21505	-1092.53	6.78406
0.2151	-1079.71	6.69861
0.21515	-1079.1	6.64368
0.2152	-1088.26	6.58569
0.21525	-1080.32	6.52771
0.2153	-1087.04	6.47583
0.21535	-1090.09	6.41174
0.2154	-1091.31	6.37207
0.21545	-1096.8	6.29883
0.2155	-1084.59	6.23779
0.21555	-1096.8	6.19202
0.2156	-1093.14	6.14014
0.21565	-1083.37	6.073
0.2157	-1090.09	6.00586
0.21575	-1096.19	5.96313
0.2158	-1085.21	5.89294
0.21585	-1087.04	5.85022
0.2159	-1091.31	5.78613
0.21595	-1094.36	5.72815
0.216	-1083.98	5.66406
0.21605	-1088.26	5.59998
0.2161	-1091.92	5.5603
0.21615	-1093.14	5.49011
0.2162	-1088.87	5.44434
0.21625	-1088.26	5.37109
0.2163	-1083.37	5.31311
0.21635	-1082.76	5.25818
0.2164	-1090.7	5.19714
0.21645	-1090.7	5.14526
0.2165	-1095.58	5.08728
0.21655	-1090.09	5.04761
0.2166	-1085.82	4.97742
0.21665	-1087.65	4.92249
0.2167	-1089.48	4.86755
0.21675	-1089.48	4.80042
0.2168	-1091.92	4.75159
0.21685	-1082.76	4.67834
0.2169	-1094.97	4.64172
0.21695	-1091.92	4.56543
0.217	-1084.59	4.53186
0.21705	-1092.53	4.45862
0.2171	-1091.92	4.40369
0.21715	-1098.63	4.3457
0.2172	-1094.36	4.28772
0.21725	-1098.02	4.23584
0.2173	-1093.75	4.16565
0.21735	-1083.98	4.13208
0.2174	-1093.75	4.05884
0.21745	-1092.53	4.00391
0.2175	-1093.75	3.93677
0.21755	-1087.65	3.88184
0.2176	-1086.43	3.82385
0.21765	-1093.75	3.75366
0.2177	-1090.7	3.70483
0.21775	-1083.98	3.64075
0.2178	-1091.31	3.60413
0.21785	-1085.82	3.53088
0.2179	-1090.7	3.479
0.21795	-1089.48	3.43933
0.218	-1091.31	3.35999
0.21805	-1097.41	3.31421
0.2181	-1085.82	3.25012
0.21815	-1096.19	3.2074
0.2182	-1089.48	3.14026
0.21825	-1088.87	3.08838
0.2183	-1094.36	3.02734
0.21835	-1093.75	2.96326
0.2184	-1094.36	2.92969
0.21845	-1094.36	2.8717
0.2185	-1092.53	2.82898
0.21855	-1093.75	2.75269
0.2186	-1088.87	2.70081
0.21865	-1087.65	2.64893
0.2187	-1091.92	2.58789
0.21875	-1096.19	2.54517
0.2188	-1089.48	2.49023
0.21885	-1101.68	2.44751
0.2189	-1096.19	2.39258
0.21895	-1090.7	2.35596
0.219	-1090.09	2.30103
0.21905	-1093.75	2.23999
0.2191	-1088.26	2.19421
0.21915	-1082.15	2.13928
0.2192	-1089.48	2.10266
0.21925	-1085.82	2.05078
0.2193	-1093.14	2.01111
0.21935	-1092.53	1.96228
0.2194	-1095.58	1.9165
0.21945	-1085.21	1.86768
0.2195	-1094.97	1.81885
0.21955	-1088.87	1.78528
0.2196	-1093.14	1.73035
0.21965	-1082.76	1.68762
0.2197	-1089.48	1.63879
0.21975	-1088.26	1.60217
0.2198	-1085.21	1.55945
0.21985	-1088.87	1.50757
0.2199	-1082.15	1.4801
0.21995	-1088.26	1.42517
0.22	-1090.7	1.38855
0.22005	-1093.14	1.33972
0.2201	-1079.71	1.3031
0.22015	-1086.43	1.26343
0.2202	-1093.14	1.22681
0.22025	-1084.59	1.19934
0.2203	-1090.09	1.15356
0.22035	-1085.82	1.12915
0.2204	-1086.43	1.07727
0.22045	-1080.93	1.05286
0.2205	-1089.48	1.01318
0.22055	-1091.92	0.98877
0.2206	-1091.31	0.946045
0.22065	-1086.43	0.90332
0.2207	-1093.14	0.881958
0.22075	-1089.48	0.839233
0.2208	-1091.92	0.805664
0.22085	-1089.48	0.778198
0.2209	-1082.15	0.756836
0.22095	-1100.46	0.720215
0.221	-1093.14	0.67749
0.22105	-1087.04	0.671387
0.2211	-1086.43	0.628662
0.22115	-1084.59	0.616455
0.2212	-1085.21	0.576782
0.22125	-1079.1	0.561523
0.2213	-1093.75	0.531006
0.22135	-1091.31	0.497437
0.2214	-1086.43	0.491333
0.22145	-1085.21	0.445557
0.2215	-1088.87	0.43335
0.22155	-1077.88	0.402832
0.2216	-1095.58	0.387573
0.22165	-1086.43	0.360107
0.2217	-1082.15	0.335693
0.22175	-1086.43	0.332642
0.2218	-1093.75	0.292969
0.22185	-1085.21	0.280762
0.2219	-1091.31	0.244141
0.22195	-1080.32	0.22583
0.222	-1082.76	0.210571
0.22205	-1088.26	0.204468
0.2221	-1091.92	0.186157
0.22215	-1093.14	0.15564
0.2222	-1084.59	0.143433
0.22225	-1088.26	0.109863
0.2223	-1088.87	0.115967
0.22235	-1090.09	0.0854492
0.2224	-1093.75	0.0732422
0.22245	-1079.71	0.0579834
0.2225	-1087.65	0.0396729
0.22255	-1085.21	0.0305176
0.2226	-1087.65	0.00305176
0.22265	-1083.98	-0.00305176
0.2227	-1085.82	-0.0213623
0.22275	-1086.43	-0.0274658
0.2228	-1076.66	-0.0457764
0.22285	-1082.76	-0.0549316
0.2229	-1077.88	-0.0518799
0.22295	-1081.54	-0.088501
0.223	-1081.54	-0.0976563
0.22305	-1080.93	-0.112915
0.2231	-1075.44	-0.109863
0.22315	-1087.04	-0.128174
0.2232	-1080.93	-0.146484
0.22325	-1077.88	-0.149536
0.2233	-1088.26	-0.167847
0.22335	-1077.88	-0.170898
0.2234	-1076.05	-0.198364
0.22345	-1079.71	-0.186157
0.2235	-1085.82	-0.195313
0.22355	-1077.88	-0.216675
0.2236	-1077.27	-0.222778
0.22365	-1082.15	-0.234985
0.2237	-1078.49	-0.234985
0.22375	-1076.66	-0.271606
0.2238	-1079.71	-0.262451
0.22385	-1074.83	-0.27771
0.2239	-1083.37	-0.283813
0.22395	-1082.15	-0.286865
0.224	-1080.32	-0.283813
0.22405	-1076.05	-0.292969
0.2241	-1083.98	-0.320435
0.22415	-1079.71	-0.302124
0.2242	-1076.66	-0.320435
0.22425	-1082.15	-0.323486
0.2243	-1073.61	-0.338745
0.22435	-1073	-0.338745
0.2244	-1080.93	-0.341797
0.22445	-1073	-0.357056
0.2245	-1074.22	-0.3479
0.22455	-1075.44	-0.372314
0.2246	-1074.83	-0.350952
0.22465	-1072.39	-0.38147
0.2247	-1073.61	-0.375366
0.22475	-1077.88	-0.375366
0.2248	-1079.1	-0.396729
0.22485	-1080.93	-0.387573
0.2249	-1075.44	-0.408936
0.22495	-1068.73	-0.390625
0.225	-1076.05	-0.408936
0.22505	-1074.83	-0.415039
0.2251	-1080.93	-0.415039
0.22515	-1083.37	-0.411987
0.2252	-1080.32	-0.408936
0.22525	-1079.71	-0.430298
0.2253	-1082.15	-0.415039
0.22535	-1080.93	-0.427246
0.2254	-1082.15	-0.43335
0.22545	-1073.61	-0.439453
0.2255	-1080.32	-0.445557
0.22555	-1084.59	-0.448608
0.2256	-1082.15	-0.457764
0.22565	-1083.37	-0.45166
0.2257	-1082.76	-0.460815
0.22575	-1077.88	-0.454712
0.2258	-1087.04	-0.466919
0.22585	-1077.88	-0.473022
0.2259	-1079.1	-0.469971
0.22595	-1082.15	-0.476074
0.226	-1077.27	-0.466919
0.22605	-1084.59	-0.482178
0.2261	-1088.26	-0.476074
0.22615	-1080.32	-0.485229
0.2262	-1072.39	-0.482178
0.22625	-1079.71	-0.488281
0.2263	-1086.43	-0.500488
0.22635	-1076.05	-0.500488
0.2264	-1083.98	-0.509644
0.22645	-1091.31	-0.491333
0.2265	-1090.7	-0.50354
0.22655	-1091.92	-0.491333
0.2266	-1080.32	-0.506592
0.22665	-1088.87	-0.509644
0.2267	-1087.04	-0.518799
0.22675	-1085.82	-0.531006
0.2268	-1077.27	-0.518799
0.22685	-1086.43	-0.534058
0.2269	-1085.82	-0.515747
0.22695	-1085.21	-0.531006
0.227	-1083.37	-0.527954
0.22705	-1080.93	-0.527954
0.2271	-1082.76	-0.543213
0.22715	-1077.88	-0.521851
0.2272	-1091.31	-0.549316
0.22725	-1082.76	-0.534058
0.2273	-1078.49	-0.540161
0.22735	-1088.26	-0.546265
0.2274	-1082.15	-0.543213
0.22745	-1076.66	-0.540161
0.2275	-1083.98	-0.546265
0.22755	-1091.31	-0.561523
0.2276	-1083.37	-0.55542
0.22765	-1082.15	-0.564575
0.2277	-1083.98	-0.549316
0.22775	-1091.31	-0.558472
0.2278	-1086.43	-0.567627
0.22785	-1082.15	-0.564575
0.2279	-1088.26	-0.570679
0.22795	-1085.21	-0.558472
0.228	-1087.65	-0.57373
0.22805	-1083.37	-0.567627
0.2281	-1081.54	-0.570679
0.22815	-1087.04	-0.57373
0.2282	-1091.31	-0.579834
0.22825	-1085.82	-0.592041
0.2283	-1079.1	-0.570679
0.22835	-1093.75	-0.588989
0.2284	-1085.21	-0.570679
0.22845	-1084.59	-0.579834
0.2285	-1092.53	-0.592041
0.22855	-1080.32	-0.592041
0.2286	-1080.32	-0.592041
0.22865	-1082.76	-0.579834
0.2287	-1085.21	-0.598145
0.22875	-1083.98	-0.582886
0.2288	-1080.32	-0.588989
0.22885	-1079.1	-0.588989
0.2289	-1083.98	-0.592041
0.22895	-1087.04	-0.588989
0.229	-1088.87	-0.582886
0.22905	-1083.37	-0.595093
0.2291	-1090.09	-0.582886
0.22915	-1096.19	-0.598145
0.2292	-1090.09	-0.579834
0.22925	-1080.93	-0.595093
0.2293	-1086.43	-0.592041
0.22935	-1086.43	-0.592041
0.2294	-1084.59	-0.595093
0.22945	-1093.14	-0.588989
0.2295	-1086.43	-0.592041
0.22955	-1091.92	-0.592041
0.2296	-1087.65	-0.6073
0.22965	-1092.53	-0.595093
0.2297	-1096.8	-0.588989
0.22975	-1093.14	-0.592041
0.2298	-1083.98	-0.588989
0.22985	-1097.41	-0.601196
0.2299	-1085.21	-0.585938
0.22995	-1089.48	-0.598145
0.23	-1097.41	-0.588989
0.23005	-1091.92	-0.595093
0.2301	-1085.82	-0.6073
0.23015	-1093.14	-0.595093
0.2302	-1083.37	-0.610352
0.23025	-1093.14	-0.604248
0.2303	-1083.37	-0.619507
0.23035	-1082.76	-0.598145
0.2304	-1088.87	-0.595093
0.23045	-1095.58	-0.592041
0.2305	-1083.98	-0.585938
0.23055	-1088.26	-0.6073
0.2306	-1094.97	-0.585938
0.23065	-1086.43	-0.610352
0.2307	-1087.65	-0.601196
0.23075	-1091.31	-0.616455
0.2308	-1091.92	-0.613403
0.23085	-1088.26	-0.604248
0.2309	-1090.7	-0.610352
0.23095	-1085.82	-0.601196
0.231	-1100.46	-0.610352
0.23105	-1085.21	-0.601196
0.2311	-1095.58	-0.616455
0.23115	-1091.92	-0.610352
0.2312	-1094.36	-0.610352
0.23125	-1089.48	-0.616455
0.2313	-1097.41	-0.610352
0.23135	-1097.41	-0.622559
0.2314	-1091.31	-0.613403
0.23145	-1099.24	-0.62561
0.2315	-1090.09	-0.619507
0.23155	-1094.36	-0.619507
0.2316	-1097.41	-0.616455
0.23165	-1096.8	-0.604248
0.2317	-1093.14	-0.616455
0.23175	-1094.36	-0.6073
0.2318	-1091.92	-0.619507
0.23185	-1092.53	-0.613403
0.2319	-1096.8	-0.619507
0.23195	-1101.07	-0.619507
0.232	-1093.14	-0.604248
0.23205	-1089.48	-0.616455
0.2321	-1090.09	-0.6073
0.23215	-1091.31	-0.604248
0.2322	-1093.75	-0.601196
0.23225	-1099.24	-0.613403
0.2323	-1096.19	-0.610352
0.23235	-1101.68	-0.604248
0.2324	-1107.79	-0.619507
0.23245	-1098.02	-0.601196
0.2325	-1098.63	-0.6073
0.23255	-1104.13	-0.598145
0.2326	-1093.14	-0.616455
0.23265	-1098.02	-0.613403
0.2327	-1101.68	-0.6073
0.23275	-1101.68	-0.610352
0.2328	-1101.68	-0.601196
0.23285	-1105.96	-0.613403
0.2329	-1089.48	-0.601196
0.23295	-1097.41	-0.619507
0.233	-1102.29	-0.604248
0.23305	-1095.58	-0.610352
0.2331	-1102.91	-0.601196
0.23315	-1092.53	-0.598145
0.2332	-1096.19	-0.613403
0.23325	-1096.8	-0.601196
0.2333	-1098.02	-0.619507
0.23335	-1087.04	-0.604248
0.2334	-1094.97	-0.622559
0.23345	-1093.75	-0.619507
0.2335	-1098.02	-0.616455
0.23355	-1093.14	-0.622559
0.2336	-1094.36	-0.6073
0.23365	-1094.36	-0.613403
0.2337	-1087.04	-0.6073
0.23375	-1094.36	-0.622559
0.2338	-1091.31	-0.6073
0.23385	-1098.02	-0.613403
0.2339	-1095.58	-0.622559
0.23395	-1087.65	-0.613403
0.234	-1093.14	-0.62561
0.23405	-1091.92	-0.613403
0.2341	-1087.65	-0.628662
0.23415	-1094.97	-0.6073
0.2342	-1097.41	-0.622559
0.23425	-1082.76	-0.619507
0.2343	-1107.79	-0.610352
0.23435	-1094.36	-0.619507
0.2344	-1093.75	-0.604248
0.23445	-1091.92	-0.613403
0.2345	-1094.36	-0.613403
0.23455	-1096.19	-0.62561
0.2346	-1093.75	-0.610352
0.23465	-1087.04	-0.610352
0.2347	-1090.09	-0.622559
0.23475	-1091.31	-0.601196
0.2348	-1091.31	-0.62561
0.23485	-1085.82	-0.604248
0.2349	-1092.53	-0.610352
0.23495	-1098.02	-0.6073
0.235	-1083.98	-0.6073
0.23505	-1095.58	-0.622559
0.2351	-1101.68	-0.610352
0.23515	-1088.26	-0.622559
0.2352	-1094.36	-0.613403
0.23525	-1105.96	-0.631714
0.2353	-1096.19	-0.619507
0.23535	-1100.46	-0.6073
0.2354	-1105.35	-0.616455
0.23545	-1089.48	-0.610352
0.2355	-1100.46	-0.619507
0.23555	-1099.85	-0.610352
0.2356	-1093.14	-0.62561
0.23565	-1098.63	-0.613403
0.2357	-1096.19	-0.619507
0.23575	-1093.14	-0.613403
0.2358	-1094.97	-0.616455
0.23585	-1094.36	-0.6073
0.2359	-1092.53	-0.610352
0.23595	-1093.14	-0.622559
0.236	-1091.92	-0.616455
0.23605	-1089.48	-0.62561
0.2361	-1094.97	-0.616455
0.23615	-1091.92	-0.601196
0.2362	-1088.26	-0.604248
0.23625	-1080.93	-0.595093
0.2363	-1083.98	-0.619507
0.23635	-1094.36	-0.598145
0.2364	-1080.32	-0.613403
0.23645	-1085.21	-0.604248
0.2365	-1086.43	-0.610352
0.23655	-1090.7	-0.6073
0.2366	-1088.87	-0.610352
0.23665	-1081.54	-0.616455
0.2367	-1082.15	-0.598145
0.23675	-1089.48	-0.610352
0.2368	-1081.54	-0.601196
0.23685	-1073	-0.619507
0.2369	-1074.83	-0.610352
0.23695	-1081.54	-0.6073
0.237	-1080.93	-0.613403
0.23705	-1088.26	-0.598145
0.2371	-1078.49	-0.601196
0.23715	-1084.59	-0.604248
0.2372	-1087.04	-0.613403
0.23725	-1080.93	-0.610352
0.2373	-1087.04	-0.604248
0.23735	-1085.21	-0.6073
0.2374	-1088.26	-0.598145
0.23745	-1096.19	-0.622559
0.2375	-1074.22	-0.6073
0.23755	-1082.76	-0.613403
0.2376	-1088.26	-0.610352
0.23765	-1095.58	-0.6073
0.2377	-1089.48	-0.622559
0.23775	-1089.48	-0.613403
0.2378	-1093.14	-0.62561
0.23785	-1087.04	-0.6073
0.2379	-1091.31	-0.613403
0.23795	-1094.36	-0.613403
0.238	-1088.87	-0.613403
0.23805	-1095.58	-0.619507
0.2381	-1086.43	-0.604248
0.23815	-1096.8	-0.619507
0.2382	-1077.27	-0.610352
0.23825	-1088.87	-0.62561
0.2383	-1094.36	-0.610352
0.23835	-1102.29	-0.628662
0.2384	-1093.14	-0.619507
0.23845	-1099.24	-0.616455
0.2385	-1093.75	-0.628662
0.23855	-1087.65	-0.610352
0.2386	-1097.41	-0.622559
0.23865	-1090.7	-0.619507
0.2387	-1093.14	-0.62561
0.23875	-1091.92	-0.613403
0.2388	-1101.68	-0.613403
0.23885	-1101.68	-0.619507
0.2389	-1096.19	-0.610352
0.23895	-1098.02	-0.619507
0.239	-1102.91	-0.601196
0.23905	-1104.13	-0.613403
0.2391	-1089.48	-0.619507
0.23915	-1092.53	-0.62561
0.2392	-1093.14	-0.616455
0.23925	-1091.92	-0.598145
0.2393	-1093.14	-0.610352
0.23935	-1092.53	-0.6073
0.2394	-1092.53	-0.610352
0.23945	-1096.8	-0.598145
0.2395	-1087.04	-0.613403
0.23955	-1092.53	-0.610352
0.2396	-1093.75	-0.598145
0.23965	-1088.87	-0.595093
0.2397	-1098.02	-0.598145
0.23975	-1085.82	-0.595093
0.2398	-1091.92	-0.588989
0.23985	-1096.19	-0.595093
0.2399	-1095.58	-0.601196
0.23995	-1094.36	-0.588989
0.24	-1093.75	-0.601196
0.24005	-1096.19	-0.592041
0.2401	-1098.02	-0.604248
0.24015	-1100.46	-0.585938
0.2402	-1088.87	-0.6073
0.24025	-1087.04	-0.601196
0.2403	-1094.36	-0.598145
0.24035	-1090.09	-0.595093
0.2404	-1092.53	-0.595093
0.24045	-1090.7	-0.601196
0.2405	-1090.7	-0.585938
0.24055	-1094.36	-0.595093
0.2406	-1089.48	-0.6073
0.24065	-1087.65	-0.595093
0.2407	-1083.37	-0.592041
0.24075	-1089.48	-0.598145
0.2408	-1083.98	-0.601196
0.24085	-1087.65	-0.592041
0.2409	-1091.31	-0.604248
0.24095	-1085.21	-0.582886
0.241	-1083.98	-0.595093
0.24105	-1091.31	-0.598145
0.2411	-1092.53	-0.588989
0.24115	-1088.87	-0.601196
0.2412	-1088.87	-0.592041
0.24125	-1089.48	-0.6073
0.2413	-1080.93	-0.595093
0.24135	-1091.92	-0.604248
0.2414	-1090.7	-0.598145
0.24145	-1091.31	-0.604248
0.2415	-1093.14	-0.598145
0.24155	-1087.04	-0.582886
0.2416	-1088.87	-0.604248
0.24165	-1084.59	-0.592041
0.2417	-1083.37	-0.604248
0.24175	-1085.21	-0.604248
0.2418	-1080.32	-0.613403
0.24185	-1084.59	-0.601196
0.2419	-1096.8	-0.592041
0.24195	-1091.92	-0.601196
0.242	-1092.53	-0.585938
0.24205	-1088.87	-0.604248
0.2421	-1091.31	-0.592041
0.24215	-1084.59	-0.604248
0.2422	-1096.19	-0.6073
0.24225	-1093.75	-0.6073
0.2423	-1093.75	-0.628662
0.24235	-1095.58	-0.604248
0.2424	-1093.14	-0.610352
0.24245	-1099.24	-0.598145
0.2425	-1094.36	-0.613403
0.24255	-1089.48	-0.6073
0.2426	-1091.31	-0.598145
0.24265	-1094.36	-0.601196
0.2427	-1095.58	-0.595093
0.24275	-1096.19	-0.598145
0.2428	-1093.14	-0.604248
0.24285	-1101.68	-0.613403
0.2429	-1093.75	-0.595093
0.24295	-1099.85	-0.613403
0.243	-1102.91	-0.613403
0.24305	-1090.09	-0.6073
0.2431	-1093.75	-0.619507
0.24315	-1093.14	-0.610352
0.2432	-1092.53	-0.622559
0.24325	-1093.14	-0.610352
0.2433	-1094.36	-0.610352
0.24335	-1090.7	-0.613403
0.2434	-1089.48	-0.6073
0.24345	-1094.36	-0.619507
0.2435	-1091.31	-0.604248
0.24355	-1086.43	-0.619507
0.2436	-1088.26	-0.6073
0.24365	-1088.87	-0.622559
0.2437	-1094.36	-0.616455
0.24375	-1095.58	-0.601196
0.2438	-1098.63	-0.604248
0.24385	-1098.02	-0.588989
0.2439	-1099.24	-0.610352
0.24395	-1090.09	-0.604248
0.244	-1092.53	-0.613403
0.24405	-1101.68	-0.604248
0.2441	-1092.53	-0.6073
0.24415	-1102.29	-0.601196
0.2442	-1091.92	-0.595093
0.24425	-1102.29	-0.601196
0.2443	-1108.4	-0.592041
0.24435	-1090.7	-0.616455
0.2444	-1109.01	-0.604248
0.24445	-1101.07	-0.610352
0.2445	-1094.97	-0.613403
0.24455	-1099.85	-0.601196
0.2446	-1100.46	-0.6073
0.24465	-1100.46	-0.595093
0.2447	-1105.35	-0.616455
0.24475	-1087.04	-0.604248
0.2448	-1095.58	-0.616455
0.24485	-1104.13	-0.601196
0.2449	-1090.09	-0.604248
0.24495	-1097.41	-0.610352
0.245	-1102.29	-0.6073
0.24505	-1099.24	-0.622559
0.2451	-1101.68	-0.6073
0.24515	-1094.36	-0.610352
0.2452	-1100.46	-0.6073
0.24525	-1095.58	-0.610352
0.2453	-1094.97	-0.598145
0.24535	-1096.8	-0.6073
0.2454	-1083.98	-0.619507
0.24545	-1090.09	-0.595093
0.2455	-1089.48	-0.601196
0.24555	-1087.65	-0.592041
0.2456	-1091.31	-0.6073
0.24565	-1092.53	-0.604248
0.2457	-1086.43	-0.613403
0.24575	-1091.31	-0.613403
0.2458	-1096.8	-0.582886
0.24585	-1095.58	-0.610352
0.2459	-1098.63	-0.6073
0.24595	-1094.97	-0.610352
0.246	-1096.19	-0.619507
0.24605	-1096.8	-0.610352
0.2461	-1098.63	-0.631714
0.24615	-1094.97	-0.619507
0.2462	-1095.58	-0.628662
0.24625	-1098.02	-0.616455
0.2463	-1099.85	-0.610352
0.24635	-1092.53	-0.610352
0.2464	-1093.14	-0.613403
0.24645	-1087.04	-0.616455
0.2465	-1091.92	-0.598145
0.24655	-1094.97	-0.616455
0.2466	-1088.26	-0.613403
0.24665	-1089.48	-0.62561
0.2467	-1093.14	-0.610352
0.24675	-1102.91	-0.613403
0.2468	-1094.97	-0.616455
0.24685	-1098.63	-0.601196
0.2469	-1102.29	-0.616455
0.24695	-1095.58	-0.610352
0.247	-1088.87	-0.610352
0.24705	-1097.41	-0.604248
0.2471	-1096.8	-0.610352
0.24715	-1097.41	-0.616455
0.2472	-1098.63	-0.619507
0.24725	-1094.36	-0.616455
0.2473	-1091.31	-0.622559
0.24735	-1096.19	-0.628662
0.2474	-1088.26	-0.604248
0.24745	-1099.85	-0.619507
0.2475	-1093.75	-0.616455
0.24755	-1103.52	-0.619507
0.2476	-1096.19	-0.622559
0.24765	-1097.41	-0.6073
0.2477	-1096.8	-0.613403
0.24775	-1099.24	-0.598145
0.2478	-1100.46	-0.6073
0.24785	-1100.46	-0.598145
0.2479	-1105.96	-0.610352
0.24795	-1093.75	-0.616455
0.248	-1096.19	-0.601196
0.24805	-1094.97	-0.601196
0.2481	-1093.14	-0.598145
0.24815	-1093.75	-0.619507
0.2482	-1096.19	-0.604248
0.24825	-1094.36	-0.604248
0.2483	-1092.53	-0.610352
0.24835	-1093.14	-0.610352
0.2484	-1094.97	-0.610352
0.24845	-1100.46	-0.592041
0.2485	-1091.92	-0.613403
0.24855	-1091.92	-0.595093
0.2486	-1102.29	-0.592041
0.24865	-1091.92	-0.598145
0.2487	-1088.26	-0.598145
0.24875	-1095.58	-0.598145
0.2488	-1094.97	-0.595093
0.24885	-1095.58	-0.613403
0.2489	-1098.02	-0.592041
0.24895	-1094.36	-0.601196
0.249	-1093.75	-0.595093
0.24905	-1091.31	-0.598145
0.2491	-1095.58	-0.598145
0.24915	-1098.63	-0.592041
0.2492	-1096.19	-0.6073
0.24925	-1087.65	-0.598145
0.2493	-1093.75	-0.6073
0.24935	-1097.41	-0.595093
0.2494	-1085.82	-0.6073
0.24945	-1090.09	-0.604248
0.2495	-1096.19	-0.592041
0.24955	-1100.46	-0.601196
0.2496	-1084.59	-0.576782
0.24965	-1091.92	-0.585938
0.2497	-1096.8	-0.582886
0.24975	-1091.92	-0.588989
0.2498	-1090.7	-0.598145
0.24985	-1088.87	-0.595093
0.2499	-1087.65	-0.598145
0.24995	-1100.46	-0.585938
